%OpenBCI Raw EEG Data
%
%Sample Rate = 250.0 Hz
%First Column = SampleIndex
%Other Columns = EEG data in microvolts followed by Accel Data (in G) interleaved with Aux Data
0, 28904.85, 27942.47, -34163.10, -187500.02, 187500.00, -187500.02, 187500.00, 187500.00, 0.01, 0.43, 0.25
1, 28965.33, 27645.15, -33863.83, -187500.02, 187500.00, -187500.02, 187500.00, 187500.00, 0.00, 0.00, 0.00
2, 28925.46, 27332.47, -33713.49, -187500.02, 187500.00, -187500.02, 187500.00, 187500.00, 0.00, 0.00, 0.00
3, 28891.71, 27646.80, -33985.09, -187500.02, 187500.00, -187500.02, 187500.00, 187500.00, 0.00, 0.00, 0.00
4, 28885.87, 27982.66, -34169.80, -187500.02, 187500.00, -187500.02, 187500.00, 187500.00, 0.00, 0.00, 0.00
5, 28961.91, 27759.28, -33905.96, -187500.02, 187500.00, -187500.02, 187500.00, 187500.00, 0.00, 0.00, 0.00
6, 28928.81, 27383.57, -33699.16, -187500.02, 187500.00, -187500.02, 187500.00, 187500.00, 0.02, 0.84, 0.50
7, 28871.32, 27574.36, -33933.90, -187500.02, 187500.00, -187500.02, 187500.00, 187500.00, 0.00, 0.00, 0.00
8, 29059.59, 28142.99, -34007.39, -187500.02, 187500.00, -187500.02, 187500.00, 187500.00, 0.00, 0.00, 0.00
9, 29148.95, 28007.99, -33742.95, -187500.02, 187500.00, -187500.02, 187500.00, 187500.00, 0.00, 0.00, 0.00
10, 29178.28, 27647.74, -33453.95, -187500.02, 187500.00, -187500.02, 187500.00, 187500.00, 0.00, 0.00, 0.00
11, 29260.42, 27857.76, -33481.06, -187500.02, 187500.00, -187500.02, 187500.00, 187500.00, 0.00, 0.00, 0.00
12, 29419.03, 28442.08, -33624.15, -187500.02, 187500.00, -187500.02, 187500.00, 187500.00, 0.00, 0.00, 0.00
13, 29573.73, 28468.34, -33419.79, -187500.02, 187500.00, -187500.02, 187500.00, 187500.00, 0.00, 0.00, 0.00
14, 29691.70, 28200.75, -32974.54, -187500.02, 187500.00, -187500.02, 187500.00, 187500.00, 0.00, 0.00, 0.00
15, 29580.16, 28126.63, -33047.54, -187500.02, 187500.00, -187500.02, 187500.00, 187500.00, 0.00, 0.00, 0.00
16, 29705.22, 28714.35, -33280.76, -187500.02, 187500.00, -187500.02, 187500.00, 187500.00, 0.02, 0.85, 0.51
17, 29800.48, 28780.02, -33169.85, -187500.02, 187500.00, -187500.02, 187500.00, 187500.00, 0.00, 0.00, 0.00
18, 29738.08, 28299.74, -32970.92, -187500.02, 187500.00, -187500.02, 187500.00, 187500.00, 0.00, 0.00, 0.00
19, 29696.59, 28170.64, -32950.18, -187500.02, 187500.00, -187500.02, 187500.00, 187500.00, 0.00, 0.00, 0.00
20, 29737.95, 28646.08, -33228.26, -187500.02, 187500.00, -187500.02, 187500.00, 187500.00, 0.00, 0.00, 0.00
21, 29840.79, 28847.63, -33217.35, -187500.02, 187500.00, -187500.02, 187500.00, 187500.00, 0.00, 0.00, 0.00
22, 29918.72, 28549.39, -32845.89, -187500.02, 187500.00, -187500.02, 187500.00, 187500.00, 0.00, 0.00, 0.00
23, 29850.24, 28294.36, -32762.72, -187500.02, 187500.00, -187500.02, 187500.00, 187500.00, 0.00, 0.00, 0.00
24, 29901.25, 28730.06, -33008.14, -187500.02, 187500.00, -187500.02, 187500.00, 187500.00, 0.00, 0.00, 0.00
25, 29989.89, 29044.35, -33087.22, -187500.02, 187500.00, -187500.02, 187500.00, 187500.00, 0.00, 0.00, 0.00
26, 30133.84, 28833.12, -32724.32, -187500.02, 187500.00, -187500.02, 187500.00, 187500.00, 0.01, 0.85, 0.52
27, 30086.36, 28504.93, -32557.93, -187500.02, 187500.00, -187500.02, 187500.00, 187500.00, 0.00, 0.00, 0.00
28, 29875.74, 28601.92, -32987.15, -187500.02, 187500.00, -187500.02, 187500.00, 187500.00, 0.00, 0.00, 0.00
29, 29871.45, 28924.34, -33282.68, -187500.02, 187500.00, -187500.02, 187500.00, 187500.00, 0.00, 0.00, 0.00
30, 30001.87, 28787.01, -32958.56, -187500.02, 187500.00, -187500.02, 187500.00, 187500.00, 0.00, 0.00, 0.00
31, 30088.15, 28526.75, -32602.81, -187500.02, 187500.00, -187500.02, 187500.00, 187500.00, 0.00, 0.00, 0.00
32, 30022.21, 28683.84, -32817.59, -187500.02, 187500.00, -187500.02, 187500.00, 187500.00, 0.00, 0.00, 0.00
33, 30205.65, 29260.06, -32925.86, -187500.02, 187500.00, -187500.02, 187500.00, 187500.00, 0.00, 0.00, 0.00
34, 30311.24, 29163.75, -32680.35, -187500.02, 187500.00, -187500.02, 187500.00, 187500.00, 0.00, 0.00, 0.00
35, 30256.68, 28716.20, -32466.94, -187500.02, 187500.00, -187500.02, 187500.00, 187500.00, 0.00, 0.00, 0.00
36, 30079.90, 28657.71, -32731.45, -187500.02, 187500.00, -187500.02, 187500.00, 187500.00, 0.01, 0.85, 0.52
37, 30074.88, 29101.54, -33066.28, -187500.02, 187500.00, -187500.02, 187500.00, 187500.00, 0.00, 0.00, 0.00
38, 30227.67, 29152.46, -32874.14, -187500.02, 187500.00, -187500.02, 187500.00, 187500.00, 0.00, 0.00, 0.00
39, 30267.79, 28767.34, -32524.20, -187500.02, 187500.00, -187500.02, 187500.00, 187500.00, 0.00, 0.00, 0.00
40, 30179.01, 28657.10, -32630.44, -187500.02, 187500.00, -187500.02, 187500.00, 187500.00, 0.00, 0.00, 0.00
41, 30223.00, 29176.45, -32889.32, -187500.02, 187500.00, -187500.02, 187500.00, 187500.00, 0.00, 0.00, 0.00
42, 30340.26, 29328.44, -32762.16, -187500.02, 187500.00, -187500.02, 187500.00, 187500.00, 0.00, 0.00, 0.00
43, 30427.63, 28998.68, -32397.82, -187500.02, 187500.00, -187500.02, 187500.00, 187500.00, 0.00, 0.00, 0.00
44, 30360.40, 28824.07, -32396.55, -187500.02, 187500.00, -187500.02, 187500.00, 187500.00, 0.00, 0.00, 0.00
45, 30384.29, 29279.18, -32687.79, -187500.02, 187500.00, -187500.02, 187500.00, 187500.00, 0.00, 0.00, 0.00
46, 30522.71, 29542.17, -32654.87, -187500.02, 187500.00, -187500.02, 187500.00, 187500.00, 0.02, 0.85, 0.52
47, 30669.30, 29298.80, -32249.07, -187500.02, 187500.00, -187500.02, 187500.00, 187500.00, 0.00, 0.00, 0.00
48, 30519.72, 28938.78, -32220.04, -187500.02, 187500.00, -187500.02, 187500.00, 187500.00, 0.00, 0.00, 0.00
49, 30497.30, 29314.11, -32540.47, -187500.02, 187500.00, -187500.02, 187500.00, 187500.00, 0.00, 0.00, 0.00
50, 30738.54, 29800.93, -32477.17, -187500.02, 187500.00, -187500.02, 187500.00, 187500.00, 0.00, 0.00, 0.00
51, 30986.85, 29689.11, -32001.86, -187500.02, 187500.00, -187500.02, 187500.00, 187500.00, 0.00, 0.00, 0.00
52, 30887.83, 29309.48, -31857.63, -187500.02, 187500.00, -187500.02, 187500.00, 187500.00, 0.00, 0.00, 0.00
53, 30830.39, 29579.69, -32137.25, -187500.02, 187500.00, -187500.02, 187500.00, 187500.00, 0.00, 0.00, 0.00
54, 31019.77, 30103.51, -32194.09, -187500.02, 187500.00, -187500.02, 187500.00, 187500.00, 0.00, 0.00, 0.00
55, 31221.94, 30025.66, -31819.29, -187500.02, 187500.00, -187500.02, 187500.00, 187500.00, 0.00, 0.00, 0.00
56, 31196.93, 29634.03, -31570.47, -187500.02, 187500.00, -187500.02, 187500.00, 187500.00, 0.02, 0.85, 0.52
57, 31109.58, 29742.19, -31823.72, -187500.02, 187500.00, -187500.02, 187500.00, 187500.00, 0.00, 0.00, 0.00
58, 31238.98, 30276.38, -31978.13, -187500.02, 187500.00, -187500.02, 187500.00, 187500.00, 0.00, 0.00, 0.00
59, 31340.79, 30202.84, -31766.39, -187500.02, 187500.00, -187500.02, 187500.00, 187500.00, 0.00, 0.00, 0.00
60, 31403.11, 29882.74, -31439.09, -187500.02, 187500.00, -187500.02, 187500.00, 187500.00, 0.00, 0.00, 0.00
61, 31348.19, 29893.40, -31557.40, -187500.02, 187500.00, -187500.02, 187500.00, 187500.00, 0.00, 0.00, 0.00
62, 31359.61, 30362.81, -31881.14, -187500.02, 187500.00, -187500.02, 187500.00, 187500.00, 0.00, 0.00, 0.00
63, 31478.43, 30434.45, -31704.47, -187500.02, 187500.00, -187500.02, 187500.00, 187500.00, 0.00, 0.00, 0.00
64, 31614.60, 30153.69, -31303.86, -187500.02, 187500.00, -187500.02, 187500.00, 187500.00, 0.00, 0.00, 0.00
65, 31628.23, 30119.67, -31267.23, -187500.02, 187500.00, -187500.02, 187500.00, 187500.00, 0.00, 0.00, 0.00
66, 31727.94, 30660.54, -31496.31, -187500.02, 187500.00, -187500.02, 187500.00, 187500.00, 0.01, 0.85, 0.52
67, 31855.55, 30821.06, -31400.13, -187500.02, 187500.00, -187500.02, 187500.00, 187500.00, 0.00, 0.00, 0.00
68, 31886.04, 30458.61, -31094.11, -187500.02, 187500.00, -187500.02, 187500.00, 187500.00, 0.00, 0.00, 0.00
69, 31803.74, 30245.93, -31091.10, -187500.02, 187500.00, -187500.02, 187500.00, 187500.00, 0.00, 0.00, 0.00
70, 31937.47, 30794.06, -31279.37, -187500.02, 187500.00, -187500.02, 187500.00, 187500.00, 0.00, 0.00, 0.00
71, 32122.07, 31122.39, -31188.75, -187500.02, 187500.00, -187500.02, 187500.00, 187500.00, 0.00, 0.00, 0.00
72, 32201.78, 30824.98, -30850.01, -187500.02, 187500.00, -187500.02, 187500.00, 187500.00, 0.00, 0.00, 0.00
73, 32134.61, 30530.20, -30764.43, -187500.02, 187500.00, -187500.02, 187500.00, 187500.00, 0.00, 0.00, 0.00
74, 32153.61, 30903.12, -31027.26, -187500.02, 187500.00, -187500.02, 187500.00, 187500.00, 0.00, 0.00, 0.00
75, 32323.82, 31312.58, -31069.84, -187500.02, 187500.00, -187500.02, 187500.00, 187500.00, 0.00, 0.00, 0.00
76, 32507.28, 31187.68, -30680.90, -187500.02, 187500.00, -187500.02, 187500.00, 187500.00, 0.01, 0.84, 0.52
77, 32528.20, 30914.83, -30423.94, -187500.02, 187500.00, -187500.02, 187500.00, 187500.00, 0.00, 0.00, 0.00
78, 32508.69, 31154.60, -30652.96, -187500.02, 187500.00, -187500.02, 187500.00, 187500.00, 0.00, 0.00, 0.00
79, 32613.96, 31613.88, -30785.55, -187500.02, 187500.00, -187500.02, 187500.00, 187500.00, 0.00, 0.00, 0.00
80, 32666.69, 31429.12, -30569.99, -187500.02, 187500.00, -187500.02, 187500.00, 187500.00, 0.00, 0.00, 0.00
81, 32676.93, 31081.22, -30302.06, -187500.02, 187500.00, -187500.02, 187500.00, 187500.00, 0.00, 0.00, 0.00
82, 32518.61, 31098.27, -30571.15, -187500.02, 187500.00, -187500.02, 187500.00, 187500.00, 0.00, 0.00, 0.00
83, 32458.78, 31455.74, -30924.51, -187500.02, 187500.00, -187500.02, 187500.00, 187500.00, 0.00, 0.00, 0.00
84, 32509.05, 31358.63, -30799.29, -187500.02, 187500.00, -187500.02, 187500.00, 187500.00, 0.00, 0.00, 0.00
85, 32517.88, 30963.45, -30505.48, -187500.02, 187500.00, -187500.02, 187500.00, 187500.00, 0.00, 0.00, 0.00
86, 32509.45, 30995.92, -30602.62, -187500.02, 187500.00, -187500.02, 187500.00, 187500.00, 0.02, 0.85, 0.52
87, 32672.35, 31583.77, -30745.79, -187500.02, 187500.00, -187500.02, 187500.00, 187500.00, 0.00, 0.00, 0.00
88, 32601.31, 31496.87, -30736.42, -187500.02, 187500.00, -187500.02, 187500.00, 187500.00, 0.00, 0.00, 0.00
89, 32646.24, 31147.20, -30464.15, -187500.02, 187500.00, -187500.02, 187500.00, 187500.00, 0.00, 0.00, 0.00
90, 32590.74, 31023.46, -30467.91, -187500.02, 187500.00, -187500.02, 187500.00, 187500.00, 0.00, 0.00, 0.00
91, 32564.12, 31435.69, -30828.11, -187500.02, 187500.00, -187500.02, 187500.00, 187500.00, 0.00, 0.00, 0.00
92, 32611.46, 31546.22, -30832.42, -187500.02, 187500.00, -187500.02, 187500.00, 187500.00, 0.00, 0.00, 0.00
93, 32600.04, 31153.10, -30584.09, -187500.02, 187500.00, -187500.02, 187500.00, 187500.00, 0.00, 0.00, 0.00
94, 32575.79, 30972.23, -30496.27, -187500.02, 187500.00, -187500.02, 187500.00, 187500.00, 0.00, 0.00, 0.00
95, 32458.40, 31263.81, -30900.88, -187500.02, 187500.00, -187500.02, 187500.00, 187500.00, 0.02, 0.85, 0.52
96, 32614.64, 31580.64, -30920.29, -187500.02, 187500.00, -187500.02, 187500.00, 187500.00, 0.00, 0.00, 0.00
97, 32688.11, 31300.89, -30585.86, -187500.02, 187500.00, -187500.02, 187500.00, 187500.00, 0.00, 0.00, 0.00
98, 32631.18, 30995.14, -30457.47, -187500.02, 187500.00, -187500.02, 187500.00, 187500.00, 0.00, 0.00, 0.00
99, 32579.19, 31279.39, -30772.90, -187500.02, 187500.00, -187500.02, 187500.00, 187500.00, 0.00, 0.00, 0.00
100, 32708.18, 31686.93, -30848.07, -187500.02, 187500.00, -187500.02, 187500.00, 187500.00, 0.00, 0.00, 0.00
101, 32663.92, 31350.49, -30652.76, -187500.02, 187500.00, -187500.02, 187500.00, 187500.00, 0.00, 0.00, 0.00
102, 32514.70, 30900.30, -30595.22, -187500.02, 187500.00, -187500.02, 187500.00, 187500.00, 0.00, 0.00, 0.00
103, 32454.29, 31081.91, -30842.57, -187500.02, 187500.00, -187500.02, 187500.00, 187500.00, 0.00, 0.00, 0.00
104, 32519.35, 31507.42, -31040.67, -187500.02, 187500.00, -187500.02, 187500.00, 187500.00, 0.00, 0.00, 0.00
105, 32693.13, 31452.64, -30707.59, -187500.02, 187500.00, -187500.02, 187500.00, 187500.00, 0.01, 0.85, 0.51
106, 32671.14, 31059.89, -30453.98, -187500.02, 187500.00, -187500.02, 187500.00, 187500.00, 0.00, 0.00, 0.00
107, 32514.57, 31058.44, -30704.50, -187500.02, 187500.00, -187500.02, 187500.00, 187500.00, 0.00, 0.00, 0.00
108, 32453.59, 31459.99, -31049.34, -187500.02, 187500.00, -187500.02, 187500.00, 187500.00, 0.00, 0.00, 0.00
109, 32502.86, 31387.19, -30927.53, -187500.02, 187500.00, -187500.02, 187500.00, 187500.00, 0.00, 0.00, 0.00
110, 32446.82, 30943.62, -30717.60, -187500.02, 187500.00, -187500.02, 187500.00, 187500.00, 0.00, 0.00, 0.00
111, 32256.92, 30801.98, -30915.70, -187500.02, 187500.00, -187500.02, 187500.00, 187500.00, 0.00, 0.00, 0.00
112, 32217.20, 31223.35, -31227.53, -187500.02, 187500.00, -187500.02, 187500.00, 187500.00, 0.00, 0.00, 0.00
113, 32204.79, 31206.81, -31211.35, -187500.02, 187500.00, -187500.02, 187500.00, 187500.00, 0.00, 0.00, 0.00
114, 32186.18, 30795.58, -30968.10, -187500.02, 187500.00, -187500.02, 187500.00, 187500.00, 0.00, 0.00, 0.00
115, 32103.27, 30626.65, -30999.34, -187500.02, 187500.00, -187500.02, 187500.00, 187500.00, 0.01, 0.85, 0.52
116, 32076.67, 31022.83, -31352.23, -187500.02, 187500.00, -187500.02, 187500.00, 187500.00, 0.00, 0.00, 0.00
117, 32213.53, 31220.18, -31308.89, -187500.02, 187500.00, -187500.02, 187500.00, 187500.00, 0.00, 0.00, 0.00
118, 32282.96, 30883.87, -31001.78, -187500.02, 187500.00, -187500.02, 187500.00, 187500.00, 0.00, 0.00, 0.00
119, 32134.07, 30567.44, -31017.89, -187500.02, 187500.00, -187500.02, 187500.00, 187500.00, 0.00, 0.00, 0.00
120, 32121.82, 30931.19, -31360.66, -187500.02, 187500.00, -187500.02, 187500.00, 187500.00, 0.00, 0.00, 0.00
121, 32208.95, 31196.98, -31423.11, -187500.02, 187500.00, -187500.02, 187500.00, 187500.00, 0.00, 0.00, 0.00
122, 32197.60, 30838.81, -31239.02, -187500.02, 187500.00, -187500.02, 187500.00, 187500.00, 0.00, 0.00, 0.00
123, 32200.35, 30562.21, -31074.22, -187500.02, 187500.00, -187500.02, 187500.00, 187500.00, 0.00, 0.00, 0.00
124, 32237.90, 30904.01, -31294.10, -187500.02, 187500.00, -187500.02, 187500.00, 187500.00, 0.00, 0.00, 0.00
125, 32415.13, 31366.67, -31320.45, -187500.02, 187500.00, -187500.02, 187500.00, 187500.00, 0.02, 0.85, 0.51
126, 32432.56, 31103.46, -31101.31, -187500.02, 187500.00, -187500.02, 187500.00, 187500.00, 0.00, 0.00, 0.00
127, 32452.36, 30789.93, -30880.63, -187500.02, 187500.00, -187500.02, 187500.00, 187500.00, 0.00, 0.00, 0.00
128, 32417.70, 30952.78, -31075.58, -187500.02, 187500.00, -187500.02, 187500.00, 187500.00, 0.00, 0.00, 0.00
129, 32493.38, 31420.54, -31258.11, -187500.02, 187500.00, -187500.02, 187500.00, 187500.00, 0.00, 0.00, 0.00
130, 32659.21, 31407.73, -30939.89, -187500.02, 187500.00, -187500.02, 187500.00, 187500.00, 0.00, 0.00, 0.00
131, 32908.79, 31261.39, -30437.91, -187500.02, 187500.00, -187500.02, 187500.00, 187500.00, 0.00, 0.00, 0.00
132, 33236.46, 31679.04, -30209.86, -187500.02, 187500.00, -187500.02, 187500.00, 187500.00, 0.00, 0.00, 0.00
133, 33666.73, 32504.87, -30070.05, -187500.02, 187500.00, -187500.02, 187500.00, 187500.00, 0.00, 0.00, 0.00
134, 34141.64, 32854.27, -29547.73, -187500.02, 187500.00, -187500.02, 187500.00, 187500.00, 0.00, 0.00, 0.00
135, 34511.85, 32807.38, -28894.30, -187500.02, 187500.00, -187500.02, 187500.00, 187500.00, 0.02, 0.86, 0.53
136, 34664.45, 32944.59, -28768.79, -187500.02, 187500.00, -187500.02, 187500.00, 187500.00, 0.00, 0.00, 0.00
137, 35056.96, 33749.77, -28709.23, -187500.02, 187500.00, -187500.02, 187500.00, 187500.00, 0.00, 0.00, 0.00
138, 35376.06, 34049.06, -28387.68, -187500.02, 187500.00, -187500.02, 187500.00, 187500.00, 0.00, 0.00, 0.00
139, 35555.39, 33869.73, -27925.46, -187500.02, 187500.00, -187500.02, 187500.00, 187500.00, 0.00, 0.00, 0.00
140, 35545.62, 33764.07, -27819.03, -187500.02, 187500.00, -187500.02, 187500.00, 187500.00, 0.00, 0.00, 0.00
141, 35459.88, 34104.94, -28212.91, -187500.02, 187500.00, -187500.02, 187500.00, 187500.00, 0.00, 0.00, 0.00
142, 35586.39, 34358.81, -28202.80, -187500.02, 187500.00, -187500.02, 187500.00, 187500.00, 0.00, 0.00, 0.00
143, 35885.52, 34271.10, -27681.92, -187500.02, 187500.00, -187500.02, 187500.00, 187500.00, 0.00, 0.00, 0.00
144, 36113.76, 34278.63, -27313.99, -187500.02, 187500.00, -187500.02, 187500.00, 187500.00, 0.00, 0.00, 0.00
145, 36375.36, 34900.84, -27311.84, -187500.02, 187500.00, -187500.02, 187500.00, 187500.00, 0.02, 0.84, 0.52
146, 36845.00, 35561.47, -27042.03, -187500.02, 187500.00, -187500.02, 187500.00, 187500.00, 0.00, 0.00, 0.00
147, 37085.23, 35462.74, -26558.56, -187500.02, 187500.00, -187500.02, 187500.00, 187500.00, 0.00, 0.00, 0.00
148, 36963.39, 35083.27, -26466.05, -187500.02, 187500.00, -187500.02, 187500.00, 187500.00, 0.00, 0.00, 0.00
149, 36699.24, 35136.00, -26972.54, -187500.02, 187500.00, -187500.02, 187500.00, 187500.00, 0.00, 0.00, 0.00
150, 36594.48, 35366.34, -27319.24, -187500.02, 187500.00, -187500.02, 187500.00, 187500.00, 0.00, 0.00, 0.00
151, 36555.90, 35073.20, -27217.18, -187500.02, 187500.00, -187500.02, 187500.00, 187500.00, 0.00, 0.00, 0.00
152, 36412.89, 34603.81, -27119.86, -187500.02, 187500.00, -187500.02, 187500.00, 187500.00, 0.00, 0.00, 0.00
153, 36175.58, 34593.55, -27475.66, -187500.02, 187500.00, -187500.02, 187500.00, 187500.00, 0.00, 0.00, 0.00
154, 36089.93, 34921.98, -27822.80, -187500.02, 187500.00, -187500.02, 187500.00, 187500.00, 0.00, 0.00, 0.00
155, 36059.73, 34714.40, -27721.24, -187500.02, 187500.00, -187500.02, 187500.00, 187500.00, 0.01, 0.83, 0.52
156, 35890.95, 34167.39, -27633.68, -187500.02, 187500.00, -187500.02, 187500.00, 187500.00, 0.00, 0.00, 0.00
157, 35547.83, 33945.37, -28020.12, -187500.02, 187500.00, -187500.02, 187500.00, 187500.00, 0.00, 0.00, 0.00
158, 35299.98, 34142.20, -28574.09, -187500.02, 187500.00, -187500.02, 187500.00, 187500.00, 0.00, 0.00, 0.00
159, 35008.17, 33796.77, -28771.54, -187500.02, 187500.00, -187500.02, 187500.00, 187500.00, 0.00, 0.00, 0.00
160, 34687.98, 33097.03, -28844.72, -187500.02, 187500.00, -187500.02, 187500.00, 187500.00, 0.00, 0.00, 0.00
161, 34324.88, 32703.51, -29210.51, -187500.02, 187500.00, -187500.02, 187500.00, 187500.00, 0.00, 0.00, 0.00
162, 34096.33, 32894.70, -29790.49, -187500.02, 187500.00, -187500.02, 187500.00, 187500.00, 0.00, 0.00, 0.00
163, 34035.40, 32832.23, -29913.99, -187500.02, 187500.00, -187500.02, 187500.00, 187500.00, 0.00, 0.00, 0.00
164, 33996.24, 32380.28, -29700.79, -187500.02, 187500.00, -187500.02, 187500.00, 187500.00, 0.00, 0.00, 0.00
165, 33754.11, 32038.52, -29821.43, -187500.02, 187500.00, -187500.02, 187500.00, 187500.00, 0.01, 0.83, 0.52
166, 33675.90, 32371.11, -30180.20, -187500.02, 187500.00, -187500.02, 187500.00, 187500.00, 0.00, 0.00, 0.00
167, 33691.57, 32527.33, -30251.83, -187500.02, 187500.00, -187500.02, 187500.00, 187500.00, 0.00, 0.00, 0.00
168, 33725.16, 32202.63, -29944.72, -187500.02, 187500.00, -187500.02, 187500.00, 187500.00, 0.00, 0.00, 0.00
169, 33410.34, 31691.29, -30075.37, -187500.02, 187500.00, -187500.02, 187500.00, 187500.00, 0.00, 0.00, 0.00
170, 33161.47, 31811.94, -30581.41, -187500.02, 187500.00, -187500.02, 187500.00, 187500.00, 0.00, 0.00, 0.00
171, 32945.11, 31851.32, -30944.00, -187500.02, 187500.00, -187500.02, 187500.00, 187500.00, 0.00, 0.00, 0.00
172, 32695.19, 31298.45, -30987.16, -187500.02, 187500.00, -187500.02, 187500.00, 187500.00, 0.00, 0.00, 0.00
173, 32373.91, 30692.77, -31116.76, -187500.02, 187500.00, -187500.02, 187500.00, 187500.00, 0.00, 0.00, 0.00
174, 32114.76, 30695.87, -31597.99, -187500.02, 187500.00, -187500.02, 187500.00, 187500.00, 0.01, 0.84, 0.51
175, 32021.38, 30941.96, -31919.50, -187500.02, 187500.00, -187500.02, 187500.00, 187500.00, 0.00, 0.00, 0.00
176, 31975.09, 30700.25, -31770.41, -187500.02, 187500.00, -187500.02, 187500.00, 187500.00, 0.00, 0.00, 0.00
177, 31928.66, 30323.92, -31536.30, -187500.02, 187500.00, -187500.02, 187500.00, 187500.00, 0.00, 0.00, 0.00
178, 31816.79, 30383.13, -31769.25, -187500.02, 187500.00, -187500.02, 187500.00, 187500.00, 0.00, 0.00, 0.00
179, 31886.80, 30833.18, -31964.25, -187500.02, 187500.00, -187500.02, 187500.00, 187500.00, 0.00, 0.00, 0.00
180, 31844.62, 30638.16, -31885.81, -187500.02, 187500.00, -187500.02, 187500.00, 187500.00, 0.00, 0.00, 0.00
181, 31691.89, 30114.97, -31758.45, -187500.02, 187500.00, -187500.02, 187500.00, 187500.00, 0.00, 0.00, 0.00
182, 31495.19, 29983.81, -32022.20, -187500.02, 187500.00, -187500.02, 187500.00, 187500.00, 0.00, 0.00, 0.00
183, 31489.72, 30400.43, -32316.22, -187500.02, 187500.00, -187500.02, 187500.00, 187500.00, 0.00, 0.00, 0.00
184, 31474.61, 30328.05, -32284.61, -187500.02, 187500.00, -187500.02, 187500.00, 187500.00, 0.02, 0.85, 0.50
185, 31364.17, 29834.59, -32131.75, -187500.02, 187500.00, -187500.02, 187500.00, 187500.00, 0.00, 0.00, 0.00
186, 31104.11, 29563.85, -32335.26, -187500.02, 187500.00, -187500.02, 187500.00, 187500.00, 0.00, 0.00, 0.00
187, 31003.50, 29900.60, -32776.80, -187500.02, 187500.00, -187500.02, 187500.00, 187500.00, 0.00, 0.00, 0.00
188, 31068.50, 30014.14, -32767.79, -187500.02, 187500.00, -187500.02, 187500.00, 187500.00, 0.00, 0.00, 0.00
189, 31056.05, 29630.01, -32496.13, -187500.02, 187500.00, -187500.02, 187500.00, 187500.00, 0.00, 0.00, 0.00
190, 30871.45, 29304.37, -32564.19, -187500.02, 187500.00, -187500.02, 187500.00, 187500.00, 0.00, 0.00, 0.00
191, 30707.25, 29522.76, -33022.00, -187500.02, 187500.00, -187500.02, 187500.00, 187500.00, 0.00, 0.00, 0.00
192, 30641.74, 29615.12, -33238.59, -187500.02, 187500.00, -187500.02, 187500.00, 187500.00, 0.00, 0.00, 0.00
193, 30594.69, 29200.52, -33075.84, -187500.02, 187500.00, -187500.02, 187500.00, 187500.00, 0.00, 0.00, 0.00
194, 30319.02, 28710.35, -33159.84, -187500.02, 187500.00, -187500.02, 187500.00, 187500.00, 0.01, 0.85, 0.51
195, 30179.88, 28921.01, -33547.44, -187500.02, 187500.00, -187500.02, 187500.00, 187500.00, 0.00, 0.00, 0.00
196, 30170.70, 29172.51, -33735.62, -187500.02, 187500.00, -187500.02, 187500.00, 187500.00, 0.00, 0.00, 0.00
197, 30158.45, 28860.37, -33557.79, -187500.02, 187500.00, -187500.02, 187500.00, 187500.00, 0.00, 0.00, 0.00
198, 30097.72, 28484.79, -33429.69, -187500.02, 187500.00, -187500.02, 187500.00, 187500.00, 0.00, 0.00, 0.00
199, 30031.87, 28649.59, -33697.96, -187500.02, 187500.00, -187500.02, 187500.00, 187500.00, 0.00, 0.00, 0.00
200, 30181.63, 29132.84, -33819.42, -187500.02, 187500.00, -187500.02, 187500.00, 187500.00, 0.00, 0.00, 0.00
201, 30315.89, 29019.58, -33511.32, -187500.02, 187500.00, -187500.02, 187500.00, 187500.00, 0.00, 0.00, 0.00
202, 30234.80, 28583.10, -33351.37, -187500.02, 187500.00, -187500.02, 187500.00, 187500.00, 0.00, 0.00, 0.00
203, 30213.39, 28697.27, -33536.71, -187500.02, 187500.00, -187500.02, 187500.00, 187500.00, 0.00, 0.00, 0.00
204, 30355.48, 29205.53, -33714.34, -187500.02, 187500.00, -187500.02, 187500.00, 187500.00, 0.02, 0.87, 0.51
205, 30472.80, 29202.38, -33500.37, -187500.02, 187500.00, -187500.02, 187500.00, 187500.00, 0.00, 0.00, 0.00
206, 30574.57, 28923.02, -33129.00, -187500.02, 187500.00, -187500.02, 187500.00, 187500.00, 0.00, 0.00, 0.00
207, 30585.21, 28943.76, -33165.72, -187500.02, 187500.00, -187500.02, 187500.00, 187500.00, 0.00, 0.00, 0.00
208, 30801.51, 29563.85, -33294.80, -187500.02, 187500.00, -187500.02, 187500.00, 187500.00, 0.00, 0.00, 0.00
209, 31029.79, 29740.78, -33040.44, -187500.02, 187500.00, -187500.02, 187500.00, 187500.00, 0.00, 0.00, 0.00
210, 31147.80, 29466.86, -32672.37, -187500.02, 187500.00, -187500.02, 187500.00, 187500.00, 0.00, 0.00, 0.00
211, 31139.96, 29399.52, -32624.47, -187500.02, 187500.00, -187500.02, 187500.00, 187500.00, 0.00, 0.00, 0.00
212, 31092.15, 29783.25, -32945.82, -187500.02, 187500.00, -187500.02, 187500.00, 187500.00, 0.00, 0.00, 0.00
213, 31057.35, 29843.38, -33030.20, -187500.02, 187500.00, -187500.02, 187500.00, 187500.00, 0.00, 0.00, 0.00
214, 30985.82, 29403.67, -32848.32, -187500.02, 187500.00, -187500.02, 187500.00, 187500.00, 0.02, 0.85, 0.51
215, 30814.76, 29070.97, -32932.34, -187500.02, 187500.00, -187500.02, 187500.00, 187500.00, 0.00, 0.00, 0.00
216, 30738.19, 29389.17, -33291.63, -187500.02, 187500.00, -187500.02, 187500.00, 187500.00, 0.00, 0.00, 0.00
217, 30793.80, 29653.46, -33329.11, -187500.02, 187500.00, -187500.02, 187500.00, 187500.00, 0.00, 0.00, 0.00
218, 30775.31, 29296.27, -33060.71, -187500.02, 187500.00, -187500.02, 187500.00, 187500.00, 0.00, 0.00, 0.00
219, 30372.80, 28662.49, -33271.71, -187500.02, 187500.00, -187500.02, 187500.00, 187500.00, 0.00, 0.00, 0.00
220, 30128.25, 28752.68, -33791.21, -187500.02, 187500.00, -187500.02, 187500.00, 187500.00, 0.00, 0.00, 0.00
221, 29970.20, 28886.90, -34125.10, -187500.02, 187500.00, -187500.02, 187500.00, 187500.00, 0.00, 0.00, 0.00
222, 29819.62, 28465.79, -34074.27, -187500.02, 187500.00, -187500.02, 187500.00, 187500.00, 0.00, 0.00, 0.00
223, 29711.37, 28049.81, -33965.02, -187500.02, 187500.00, -187500.02, 187500.00, 187500.00, 0.00, 0.00, 0.00
224, 29603.72, 28147.24, -34237.13, -187500.02, 187500.00, -187500.02, 187500.00, 187500.00, 0.02, 0.86, 0.51
225, 29748.18, 28627.11, -34362.14, -187500.02, 187500.00, -187500.02, 187500.00, 187500.00, 0.00, 0.00, 0.00
226, 29863.07, 28556.28, -34056.84, -187500.02, 187500.00, -187500.02, 187500.00, 187500.00, 0.00, 0.00, 0.00
227, 29918.35, 28240.00, -33751.94, -187500.02, 187500.00, -187500.02, 187500.00, 187500.00, 0.00, 0.00, 0.00
228, 29934.33, 28343.60, -33855.94, -187500.02, 187500.00, -187500.02, 187500.00, 187500.00, 0.00, 0.00, 0.00
229, 30150.40, 28933.19, -33946.11, -187500.02, 187500.00, -187500.02, 187500.00, 187500.00, 0.00, 0.00, 0.00
230, 30327.96, 28971.62, -33658.13, -187500.02, 187500.00, -187500.02, 187500.00, 187500.00, 0.00, 0.00, 0.00
231, 30219.71, 28476.26, -33472.07, -187500.02, 187500.00, -187500.02, 187500.00, 187500.00, 0.00, 0.00, 0.00
232, 30007.02, 28296.03, -33701.56, -187500.02, 187500.00, -187500.02, 187500.00, 187500.00, 0.00, 0.00, 0.00
233, 30056.79, 28776.08, -33960.03, -187500.02, 187500.00, -187500.02, 187500.00, 187500.00, 0.00, 0.00, 0.00
234, 29981.91, 28700.40, -33983.50, -187500.02, 187500.00, -187500.02, 187500.00, 187500.00, 0.01, 0.85, 0.51
235, 29853.01, 28206.31, -33876.10, -187500.02, 187500.00, -187500.02, 187500.00, 187500.00, 0.00, 0.00, 0.00
236, 29628.11, 27903.18, -34059.14, -187500.02, 187500.00, -187500.02, 187500.00, 187500.00, 0.00, 0.00, 0.00
237, 29445.23, 28163.09, -34525.60, -187500.02, 187500.00, -187500.02, 187500.00, 187500.00, 0.00, 0.00, 0.00
238, 29315.61, 28205.42, -34745.32, -187500.02, 187500.00, -187500.02, 187500.00, 187500.00, 0.00, 0.00, 0.00
239, 29145.91, 27658.45, -34654.75, -187500.02, 187500.00, -187500.02, 187500.00, 187500.00, 0.00, 0.00, 0.00
240, 28899.71, 27196.33, -34800.70, -187500.02, 187500.00, -187500.02, 187500.00, 187500.00, 0.00, 0.00, 0.00
241, 28796.78, 27479.66, -35172.86, -187500.02, 187500.00, -187500.02, 187500.00, 187500.00, 0.00, 0.00, 0.00
242, 28697.36, 27597.61, -35418.04, -187500.02, 187500.00, -187500.02, 187500.00, 187500.00, 0.00, 0.00, 0.00
243, 28661.19, 27172.17, -35197.38, -187500.02, 187500.00, -187500.02, 187500.00, 187500.00, 0.00, 0.00, 0.00
244, 28496.66, 26729.87, -35202.12, -187500.02, 187500.00, -187500.02, 187500.00, 187500.00, 0.01, 0.87, 0.52
245, 28404.44, 26940.51, -35549.58, -187500.02, 187500.00, -187500.02, 187500.00, 187500.00, 0.00, 0.00, 0.00
246, 28369.08, 27253.82, -35781.54, -187500.02, 187500.00, -187500.02, 187500.00, 187500.00, 0.00, 0.00, 0.00
247, 28589.82, 27166.96, -35359.32, -187500.02, 187500.00, -187500.02, 187500.00, 187500.00, 0.00, 0.00, 0.00
248, 28695.55, 26912.71, -34980.79, -187500.02, 187500.00, -187500.02, 187500.00, 187500.00, 0.00, 0.00, 0.00
249, 28654.04, 27082.40, -35191.52, -187500.02, 187500.00, -187500.02, 187500.00, 187500.00, 0.00, 0.00, 0.00
250, 28814.88, 27640.75, -35322.84, -187500.02, 187500.00, -187500.02, 187500.00, 187500.00, 0.00, 0.00, 0.00
251, 29099.80, 27689.85, -34909.20, -187500.02, 187500.00, -187500.02, 187500.00, 187500.00, 0.00, 0.00, 0.00
252, 29335.57, 27541.80, -34380.31, -187500.02, 187500.00, -187500.02, 187500.00, 187500.00, 0.00, 0.00, 0.00
253, 29391.65, 27698.86, -34409.70, -187500.02, 187500.00, -187500.02, 187500.00, 187500.00, 0.00, 0.00, 0.00
254, 29681.13, 28417.92, -34480.05, -187500.02, 187500.00, -187500.02, 187500.00, 187500.00, 0.01, 0.88, 0.52
255, 30077.15, 28673.09, -34009.54, -187500.02, 187500.00, -187500.02, 187500.00, 187500.00, 0.00, 0.00, 0.00
0, 30240.28, 28417.36, -33534.48, -187500.02, 187500.00, -187500.02, 187500.00, 187500.00, 0.00, 0.00, 0.00
1, 30342.11, 28544.00, -33455.13, -187500.02, 187500.00, -187500.02, 187500.00, 187500.00, 0.00, 0.00, 0.00
2, 30471.82, 29105.99, -33629.70, -187500.02, 187500.00, -187500.02, 187500.00, 187500.00, 0.00, 0.00, 0.00
3, 30570.01, 29194.57, -33579.79, -187500.02, 187500.00, -187500.02, 187500.00, 187500.00, 0.00, 0.00, 0.00
4, 30569.92, 28782.88, -33302.45, -187500.02, 187500.00, -187500.02, 187500.00, 187500.00, 0.00, 0.00, 0.00
5, 30403.94, 28527.15, -33411.10, -187500.02, 187500.00, -187500.02, 187500.00, 187500.00, 0.00, 0.00, 0.00
6, 30309.59, 28861.53, -33818.10, -187500.02, 187500.00, -187500.02, 187500.00, 187500.00, 0.00, 0.00, 0.00
7, 30228.86, 28908.72, -34005.54, -187500.02, 187500.00, -187500.02, 187500.00, 187500.00, 0.01, 0.85, 0.51
8, 30206.73, 28502.29, -33777.75, -187500.02, 187500.00, -187500.02, 187500.00, 187500.00, 0.00, 0.00, 0.00
9, 30003.84, 28136.29, -33807.66, -187500.02, 187500.00, -187500.02, 187500.00, 187500.00, 0.00, 0.00, 0.00
10, 29808.75, 28313.91, -34281.47, -187500.02, 187500.00, -187500.02, 187500.00, 187500.00, 0.00, 0.00, 0.00
11, 29757.19, 28504.75, -34514.76, -187500.02, 187500.00, -187500.02, 187500.00, 187500.00, 0.00, 0.00, 0.00
12, 29826.59, 28240.00, -34204.63, -187500.02, 187500.00, -187500.02, 187500.00, 187500.00, 0.00, 0.00, 0.00
13, 29756.56, 27899.13, -34043.36, -187500.02, 187500.00, -187500.02, 187500.00, 187500.00, 0.00, 0.00, 0.00
14, 29675.65, 28114.09, -34349.18, -187500.02, 187500.00, -187500.02, 187500.00, 187500.00, 0.00, 0.00, 0.00
15, 29836.18, 28610.01, -34432.79, -187500.02, 187500.00, -187500.02, 187500.00, 187500.00, 0.00, 0.00, 0.00
16, 30141.39, 28625.07, -33937.41, -187500.02, 187500.00, -187500.02, 187500.00, 187500.00, 0.00, 0.00, 0.00
17, 30440.28, 28566.06, -33401.86, -187500.02, 187500.00, -187500.02, 187500.00, 187500.00, 0.01, 0.86, 0.51
18, 30650.54, 28972.42, -33301.71, -187500.02, 187500.00, -187500.02, 187500.00, 187500.00, 0.00, 0.00, 0.00
19, 30951.71, 29681.13, -33275.42, -187500.02, 187500.00, -187500.02, 187500.00, 187500.00, 0.00, 0.00, 0.00
20, 31326.24, 29854.69, -32777.45, -187500.02, 187500.00, -187500.02, 187500.00, 187500.00, 0.00, 0.00, 0.00
21, 31654.29, 29780.59, -32200.19, -187500.02, 187500.00, -187500.02, 187500.00, 187500.00, 0.00, 0.00, 0.00
22, 31918.29, 30101.16, -32016.30, -187500.02, 187500.00, -187500.02, 187500.00, 187500.00, 0.00, 0.00, 0.00
23, 32191.38, 30796.93, -32056.83, -187500.02, 187500.00, -187500.02, 187500.00, 187500.00, 0.00, 0.00, 0.00
24, 32505.80, 31017.09, -31714.13, -187500.02, 187500.00, -187500.02, 187500.00, 187500.00, 0.00, 0.00, 0.00
25, 32784.29, 30888.03, -31151.80, -187500.02, 187500.00, -187500.02, 187500.00, 187500.00, 0.00, 0.00, 0.00
26, 32746.15, 30818.56, -31192.33, -187500.02, 187500.00, -187500.02, 187500.00, 187500.00, 0.00, 0.00, 0.00
27, 32904.92, 31403.44, -31418.19, -187500.02, 187500.00, -187500.02, 187500.00, 187500.00, 0.01, 0.85, 0.51
28, 33075.55, 31600.69, -31256.77, -187500.02, 187500.00, -187500.02, 187500.00, 187500.00, 0.00, 0.00, 0.00
29, 33069.00, 31217.88, -30948.36, -187500.02, 187500.00, -187500.02, 187500.00, 187500.00, 0.00, 0.00, 0.00
30, 32919.87, 30947.98, -31033.88, -187500.02, 187500.00, -187500.02, 187500.00, 187500.00, 0.00, 0.00, 0.00
31, 32861.85, 31304.62, -31420.65, -187500.02, 187500.00, -187500.02, 187500.00, 187500.00, 0.00, 0.00, 0.00
32, 32819.09, 31407.93, -31569.80, -187500.02, 187500.00, -187500.02, 187500.00, 187500.00, 0.00, 0.00, 0.00
33, 32738.64, 30955.71, -31405.12, -187500.02, 187500.00, -187500.02, 187500.00, 187500.00, 0.00, 0.00, 0.00
34, 32565.71, 30567.78, -31452.86, -187500.02, 187500.00, -187500.02, 187500.00, 187500.00, 0.00, 0.00, 0.00
35, 32274.82, 30633.98, -32012.03, -187500.02, 187500.00, -187500.02, 187500.00, 187500.00, 0.00, 0.00, 0.00
36, 32079.18, 30701.19, -32410.97, -187500.02, 187500.00, -187500.02, 187500.00, 187500.00, 0.00, 0.00, 0.00
37, 31924.79, 30232.70, -32346.04, -187500.02, 187500.00, -187500.02, 187500.00, 187500.00, 0.02, 0.85, 0.50
38, 31643.65, 29686.98, -32408.08, -187500.02, 187500.00, -187500.02, 187500.00, 187500.00, 0.00, 0.00, 0.00
39, 31224.58, 29528.46, -33037.87, -187500.02, 187500.00, -187500.02, 187500.00, 187500.00, 0.00, 0.00, 0.00
40, 30931.08, 29590.18, -33614.03, -187500.02, 187500.00, -187500.02, 187500.00, 187500.00, 0.00, 0.00, 0.00
41, 30792.79, 29221.13, -33546.93, -187500.02, 187500.00, -187500.02, 187500.00, 187500.00, 0.00, 0.00, 0.00
42, 30494.69, 28591.90, -33570.22, -187500.02, 187500.00, -187500.02, 187500.00, 187500.00, 0.00, 0.00, 0.00
43, 30203.75, 28471.58, -34006.84, -187500.02, 187500.00, -187500.02, 187500.00, 187500.00, 0.00, 0.00, 0.00
44, 30275.50, 28957.11, -34254.72, -187500.02, 187500.00, -187500.02, 187500.00, 187500.00, 0.00, 0.00, 0.00
45, 30486.68, 29013.03, -33915.24, -187500.02, 187500.00, -187500.02, 187500.00, 187500.00, 0.00, 0.00, 0.00
46, 30667.06, 28805.09, -33447.26, -187500.02, 187500.00, -187500.02, 187500.00, 187500.00, 0.00, 0.00, 0.00
47, 30766.37, 28937.10, -33397.68, -187500.02, 187500.00, -187500.02, 187500.00, 187500.00, 0.01, 0.85, 0.51
48, 31022.50, 29583.79, -33442.01, -187500.02, 187500.00, -187500.02, 187500.00, 187500.00, 0.00, 0.00, 0.00
49, 31319.78, 29834.82, -33096.65, -187500.02, 187500.00, -187500.02, 187500.00, 187500.00, 0.00, 0.00, 0.00
50, 31581.07, 29715.99, -32571.68, -187500.02, 187500.00, -187500.02, 187500.00, 187500.00, 0.00, 0.00, 0.00
51, 31657.71, 29703.66, -32465.77, -187500.02, 187500.00, -187500.02, 187500.00, 187500.00, 0.00, 0.00, 0.00
52, 31689.16, 30143.88, -32765.40, -187500.02, 187500.00, -187500.02, 187500.00, 187500.00, 0.00, 0.00, 0.00
53, 31844.39, 30402.35, -32601.56, -187500.02, 187500.00, -187500.02, 187500.00, 187500.00, 0.00, 0.00, 0.00
54, 31879.09, 30071.66, -32306.88, -187500.02, 187500.00, -187500.02, 187500.00, 187500.00, 0.00, 0.00, 0.00
55, 31832.82, 29866.38, -32275.07, -187500.02, 187500.00, -187500.02, 187500.00, 187500.00, 0.00, 0.00, 0.00
56, 31781.16, 30165.71, -32619.15, -187500.02, 187500.00, -187500.02, 187500.00, 187500.00, 0.00, 0.00, 0.00
57, 31816.77, 30364.53, -32703.87, -187500.02, 187500.00, -187500.02, 187500.00, 187500.00, 0.01, 0.85, 0.51
58, 31795.62, 30044.83, -32475.21, -187500.02, 187500.00, -187500.02, 187500.00, 187500.00, 0.00, 0.00, 0.00
59, 31669.45, 29698.29, -32430.55, -187500.02, 187500.00, -187500.02, 187500.00, 187500.00, 0.00, 0.00, 0.00
60, 31431.92, 29762.93, -32902.88, -187500.02, 187500.00, -187500.02, 187500.00, 187500.00, 0.00, 0.00, 0.00
61, 31317.83, 29910.84, -33224.10, -187500.02, 187500.00, -187500.02, 187500.00, 187500.00, 0.00, 0.00, 0.00
62, 31206.86, 29539.53, -33154.83, -187500.02, 187500.00, -187500.02, 187500.00, 187500.00, 0.00, 0.00, 0.00
63, 30967.78, 29023.87, -33201.37, -187500.02, 187500.00, -187500.02, 187500.00, 187500.00, 0.00, 0.00, 0.00
64, 30610.24, 28885.02, -33752.34, -187500.02, 187500.00, -187500.02, 187500.00, 187500.00, 0.00, 0.00, 0.00
65, 30416.21, 29007.06, -34175.05, -187500.02, 187500.00, -187500.02, 187500.00, 187500.00, 0.00, 0.00, 0.00
66, 30332.61, 28761.55, -34081.04, -187500.02, 187500.00, -187500.02, 187500.00, 187500.00, 0.00, 0.00, 0.00
67, 30314.33, 28409.51, -33844.63, -187500.02, 187500.00, -187500.02, 187500.00, 187500.00, 0.01, 0.86, 0.51
68, 30228.88, 28435.20, -34053.60, -187500.02, 187500.00, -187500.02, 187500.00, 187500.00, 0.00, 0.00, 0.00
69, 30316.45, 28892.06, -34251.25, -187500.02, 187500.00, -187500.02, 187500.00, 187500.00, 0.00, 0.00, 0.00
70, 30427.63, 28891.48, -34033.23, -187500.02, 187500.00, -187500.02, 187500.00, 187500.00, 0.00, 0.00, 0.00
71, 30508.59, 28605.52, -33695.16, -187500.02, 187500.00, -187500.02, 187500.00, 187500.00, 0.00, 0.00, 0.00
72, 30464.91, 28565.15, -33761.39, -187500.02, 187500.00, -187500.02, 187500.00, 187500.00, 0.00, 0.00, 0.00
73, 30541.51, 29041.08, -33974.07, -187500.02, 187500.00, -187500.02, 187500.00, 187500.00, 0.00, 0.00, 0.00
74, 30701.55, 29183.46, -33792.75, -187500.02, 187500.00, -187500.02, 187500.00, 187500.00, 0.00, 0.00, 0.00
75, 30746.01, 28852.93, -33472.54, -187500.02, 187500.00, -187500.02, 187500.00, 187500.00, 0.00, 0.00, 0.00
76, 30706.47, 28730.28, -33484.41, -187500.02, 187500.00, -187500.02, 187500.00, 187500.00, 0.00, 0.00, 0.00
77, 30763.29, 29172.13, -33723.06, -187500.02, 187500.00, -187500.02, 187500.00, 187500.00, 0.02, 0.86, 0.51
78, 30891.14, 29379.58, -33655.80, -187500.02, 187500.00, -187500.02, 187500.00, 187500.00, 0.00, 0.00, 0.00
79, 30998.20, 29129.98, -33307.25, -187500.02, 187500.00, -187500.02, 187500.00, 187500.00, 0.00, 0.00, 0.00
80, 30872.81, 28832.01, -33320.28, -187500.02, 187500.00, -187500.02, 187500.00, 187500.00, 0.00, 0.00, 0.00
81, 30886.00, 29194.15, -33599.27, -187500.02, 187500.00, -187500.02, 187500.00, 187500.00, 0.00, 0.00, 0.00
82, 30975.96, 29453.63, -33639.48, -187500.02, 187500.00, -187500.02, 187500.00, 187500.00, 0.00, 0.00, 0.00
83, 30974.42, 29178.23, -33379.11, -187500.02, 187500.00, -187500.02, 187500.00, 187500.00, 0.00, 0.00, 0.00
84, 30892.97, 28866.92, -33281.93, -187500.02, 187500.00, -187500.02, 187500.00, 187500.00, 0.00, 0.00, 0.00
85, 30845.65, 29098.53, -33584.25, -187500.02, 187500.00, -187500.02, 187500.00, 187500.00, 0.00, 0.00, 0.00
86, 30870.53, 29385.79, -33746.21, -187500.02, 187500.00, -187500.02, 187500.00, 187500.00, 0.00, 0.00, 0.00
87, 30939.19, 29197.70, -33528.11, -187500.02, 187500.00, -187500.02, 187500.00, 187500.00, 0.01, 0.87, 0.51
88, 30951.49, 28901.43, -33297.86, -187500.02, 187500.00, -187500.02, 187500.00, 187500.00, 0.00, 0.00, 0.00
89, 30906.07, 29040.71, -33506.38, -187500.02, 187500.00, -187500.02, 187500.00, 187500.00, 0.00, 0.00, 0.00
90, 31057.17, 29529.74, -33612.98, -187500.02, 187500.00, -187500.02, 187500.00, 187500.00, 0.00, 0.00, 0.00
91, 31186.47, 29479.65, -33332.13, -187500.02, 187500.00, -187500.02, 187500.00, 187500.00, 0.00, 0.00, 0.00
92, 31218.88, 29174.48, -33065.71, -187500.02, 187500.00, -187500.02, 187500.00, 187500.00, 0.00, 0.00, 0.00
93, 31141.61, 29182.57, -33236.53, -187500.02, 187500.00, -187500.02, 187500.00, 187500.00, 0.00, 0.00, 0.00
94, 31202.05, 29632.78, -33470.57, -187500.02, 187500.00, -187500.02, 187500.00, 187500.00, 0.00, 0.00, 0.00
95, 31349.82, 29684.95, -33257.50, -187500.02, 187500.00, -187500.02, 187500.00, 187500.00, 0.00, 0.00, 0.00
96, 31475.99, 29410.89, -32899.55, -187500.02, 187500.00, -187500.02, 187500.00, 187500.00, 0.02, 0.86, 0.51
97, 31305.34, 29258.95, -33077.59, -187500.02, 187500.00, -187500.02, 187500.00, 187500.00, 0.00, 0.00, 0.00
98, 31392.26, 29765.44, -33301.59, -187500.02, 187500.00, -187500.02, 187500.00, 187500.00, 0.00, 0.00, 0.00
99, 31549.40, 29939.02, -33099.51, -187500.02, 187500.00, -187500.02, 187500.00, 187500.00, 0.00, 0.00, 0.00
100, 31551.52, 29588.59, -32819.09, -187500.02, 187500.00, -187500.02, 187500.00, 187500.00, 0.00, 0.00, 0.00
101, 31458.56, 29405.60, -32883.48, -187500.02, 187500.00, -187500.02, 187500.00, 187500.00, 0.00, 0.00, 0.00
102, 31488.04, 29820.06, -33141.46, -187500.02, 187500.00, -187500.02, 187500.00, 187500.00, 0.00, 0.00, 0.00
103, 31540.77, 29981.98, -33146.99, -187500.02, 187500.00, -187500.02, 187500.00, 187500.00, 0.00, 0.00, 0.00
104, 31535.47, 29645.25, -32908.61, -187500.02, 187500.00, -187500.02, 187500.00, 187500.00, 0.00, 0.00, 0.00
105, 31473.36, 29380.54, -32872.44, -187500.02, 187500.00, -187500.02, 187500.00, 187500.00, 0.00, 0.00, 0.00
106, 31354.20, 29599.16, -33236.28, -187500.02, 187500.00, -187500.02, 187500.00, 187500.00, 0.02, 0.85, 0.52
107, 31318.95, 29792.01, -33407.86, -187500.02, 187500.00, -187500.02, 187500.00, 187500.00, 0.00, 0.00, 0.00
108, 31439.40, 29615.52, -33078.82, -187500.02, 187500.00, -187500.02, 187500.00, 187500.00, 0.00, 0.00, 0.00
109, 31284.53, 29205.10, -33038.09, -187500.02, 187500.00, -187500.02, 187500.00, 187500.00, 0.00, 0.00, 0.00
110, 31175.83, 29357.74, -33394.82, -187500.02, 187500.00, -187500.02, 187500.00, 187500.00, 0.00, 0.00, 0.00
111, 31249.15, 29717.94, -33532.67, -187500.02, 187500.00, -187500.02, 187500.00, 187500.00, 0.00, 0.00, 0.00
112, 31380.69, 29605.91, -33239.75, -187500.02, 187500.00, -187500.02, 187500.00, 187500.00, 0.00, 0.00, 0.00
113, 31432.99, 29334.05, -32969.18, -187500.02, 187500.00, -187500.02, 187500.00, 187500.00, 0.00, 0.00, 0.00
114, 31461.60, 29514.72, -33103.65, -187500.02, 187500.00, -187500.02, 187500.00, 187500.00, 0.00, 0.00, 0.00
115, 31624.45, 30012.24, -33196.90, -187500.02, 187500.00, -187500.02, 187500.00, 187500.00, 0.00, 0.00, 0.00
116, 31827.27, 30040.36, -32886.10, -187500.02, 187500.00, -187500.02, 187500.00, 187500.00, 0.02, 0.85, 0.51
117, 32001.30, 29846.02, -32490.70, -187500.02, 187500.00, -187500.02, 187500.00, 187500.00, 0.00, 0.00, 0.00
118, 31962.84, 29902.25, -32567.45, -187500.02, 187500.00, -187500.02, 187500.00, 187500.00, 0.00, 0.00, 0.00
119, 32038.19, 30361.11, -32781.83, -187500.02, 187500.00, -187500.02, 187500.00, 187500.00, 0.00, 0.00, 0.00
120, 32091.43, 30342.49, -32679.01, -187500.02, 187500.00, -187500.02, 187500.00, 187500.00, 0.00, 0.00, 0.00
121, 32123.23, 30018.71, -32391.16, -187500.02, 187500.00, -187500.02, 187500.00, 187500.00, 0.00, 0.00, 0.00
122, 32080.09, 29954.22, -32440.36, -187500.02, 187500.00, -187500.02, 187500.00, 187500.00, 0.00, 0.00, 0.00
123, 32153.10, 30420.01, -32656.97, -187500.02, 187500.00, -187500.02, 187500.00, 187500.00, 0.00, 0.00, 0.00
124, 32209.73, 30506.51, -32601.29, -187500.02, 187500.00, -187500.02, 187500.00, 187500.00, 0.00, 0.00, 0.00
125, 32277.28, 30229.44, -32301.49, -187500.02, 187500.00, -187500.02, 187500.00, 187500.00, 0.00, 0.00, 0.00
126, 32200.68, 30037.88, -32298.27, -187500.02, 187500.00, -187500.02, 187500.00, 187500.00, 0.02, 0.85, 0.52
127, 32292.66, 30499.87, -32516.15, -187500.02, 187500.00, -187500.02, 187500.00, 187500.00, 0.00, 0.00, 0.00
128, 32665.13, 30976.01, -32248.04, -187500.02, 187500.00, -187500.02, 187500.00, 187500.00, 0.00, 0.00, 0.00
129, 33061.94, 31000.24, -31630.98, -187500.02, 187500.00, -187500.02, 187500.00, 187500.00, 0.00, 0.00, 0.00
130, 33238.03, 30992.99, -31271.30, -187500.02, 187500.00, -187500.02, 187500.00, 187500.00, 0.00, 0.00, 0.00
131, 33342.18, 31407.44, -31401.65, -187500.02, 187500.00, -187500.02, 187500.00, 187500.00, 0.00, 0.00, 0.00
132, 33517.96, 31794.60, -31396.67, -187500.02, 187500.00, -187500.02, 187500.00, 187500.00, 0.00, 0.00, 0.00
133, 33769.37, 31765.36, -30960.92, -187500.02, 187500.00, -187500.02, 187500.00, 187500.00, 0.00, 0.00, 0.00
134, 33863.81, 31593.27, -30662.59, -187500.02, 187500.00, -187500.02, 187500.00, 187500.00, 0.00, 0.00, 0.00
135, 33894.09, 31866.99, -30843.44, -187500.02, 187500.00, -187500.02, 187500.00, 187500.00, 0.00, 0.00, 0.00
136, 34142.60, 32412.84, -30823.08, -187500.02, 187500.00, -187500.02, 187500.00, 187500.00, 0.02, 0.85, 0.52
137, 34422.38, 32470.96, -30392.13, -187500.02, 187500.00, -187500.02, 187500.00, 187500.00, 0.00, 0.00, 0.00
138, 34705.80, 32433.10, -29862.40, -187500.02, 187500.00, -187500.02, 187500.00, 187500.00, 0.00, 0.00, 0.00
139, 34841.99, 32720.58, -29830.19, -187500.02, 187500.00, -187500.02, 187500.00, 187500.00, 0.00, 0.00, 0.00
140, 35112.87, 33332.35, -29833.59, -187500.02, 187500.00, -187500.02, 187500.00, 187500.00, 0.00, 0.00, 0.00
141, 35229.72, 33320.66, -29592.30, -187500.02, 187500.00, -187500.02, 187500.00, 187500.00, 0.00, 0.00, 0.00
142, 35283.90, 33050.34, -29276.25, -187500.02, 187500.00, -187500.02, 187500.00, 187500.00, 0.00, 0.00, 0.00
143, 35186.96, 33005.46, -29426.21, -187500.02, 187500.00, -187500.02, 187500.00, 187500.00, 0.00, 0.00, 0.00
144, 35098.96, 33329.31, -29808.91, -187500.02, 187500.00, -187500.02, 187500.00, 187500.00, 0.00, 0.00, 0.00
145, 35048.00, 33251.59, -29812.62, -187500.02, 187500.00, -187500.02, 187500.00, 187500.00, 0.00, 0.00, 0.00
146, 35168.32, 33022.60, -29458.90, -187500.02, 187500.00, -187500.02, 187500.00, 187500.00, 0.02, 0.85, 0.52
147, 35313.09, 33114.13, -29290.44, -187500.02, 187500.00, -187500.02, 187500.00, 187500.00, 0.00, 0.00, 0.00
148, 35569.09, 33762.27, -29343.26, -187500.02, 187500.00, -187500.02, 187500.00, 187500.00, 0.00, 0.00, 0.00
149, 36030.96, 34280.69, -28915.58, -187500.02, 187500.00, -187500.02, 187500.00, 187500.00, 0.00, 0.00, 0.00
150, 36572.23, 34464.96, -28103.79, -187500.02, 187500.00, -187500.02, 187500.00, 187500.00, 0.00, 0.00, 0.00
151, 36787.19, 34532.91, -27756.31, -187500.02, 187500.00, -187500.02, 187500.00, 187500.00, 0.00, 0.00, 0.00
152, 36929.59, 35047.73, -27896.36, -187500.02, 187500.00, -187500.02, 187500.00, 187500.00, 0.00, 0.00, 0.00
153, 37014.84, 35290.97, -27902.11, -187500.02, 187500.00, -187500.02, 187500.00, 187500.00, 0.00, 0.00, 0.00
154, 37084.38, 35083.18, -27599.51, -187500.02, 187500.00, -187500.02, 187500.00, 187500.00, 0.00, 0.00, 0.00
155, 37029.15, 34817.47, -27502.72, -187500.02, 187500.00, -187500.02, 187500.00, 187500.00, 0.00, 0.00, 0.00
156, 36905.50, 35018.12, -27901.21, -187500.02, 187500.00, -187500.02, 187500.00, 187500.00, 0.02, 0.84, 0.52
157, 37053.67, 35420.88, -27961.36, -187500.02, 187500.00, -187500.02, 187500.00, 187500.00, 0.00, 0.00, 0.00
158, 37176.98, 35299.75, -27666.97, -187500.02, 187500.00, -187500.02, 187500.00, 187500.00, 0.00, 0.00, 0.00
159, 37160.40, 35052.81, -27402.48, -187500.02, 187500.00, -187500.02, 187500.00, 187500.00, 0.00, 0.00, 0.00
160, 36973.14, 35129.61, -27700.65, -187500.02, 187500.00, -187500.02, 187500.00, 187500.00, 0.00, 0.00, 0.00
161, 37116.43, 35619.76, -27808.83, -187500.02, 187500.00, -187500.02, 187500.00, 187500.00, 0.00, 0.00, 0.00
162, 37400.03, 35704.32, -27379.25, -187500.02, 187500.00, -187500.02, 187500.00, 187500.00, 0.00, 0.00, 0.00
163, 37565.95, 35563.37, -26972.45, -187500.02, 187500.00, -187500.02, 187500.00, 187500.00, 0.00, 0.00, 0.00
164, 37556.47, 35711.92, -27064.97, -187500.02, 187500.00, -187500.02, 187500.00, 187500.00, 0.00, 0.00, 0.00
165, 37658.57, 36201.18, -27242.73, -187500.02, 187500.00, -187500.02, 187500.00, 187500.00, 0.00, 0.00, 0.00
166, 37842.29, 36270.62, -26955.13, -187500.02, 187500.00, -187500.02, 187500.00, 187500.00, 0.02, 0.86, 0.52
167, 37989.83, 36074.15, -26558.14, -187500.02, 187500.00, -187500.02, 187500.00, 187500.00, 0.00, 0.00, 0.00
168, 38057.80, 36183.88, -26531.83, -187500.02, 187500.00, -187500.02, 187500.00, 187500.00, 0.00, 0.00, 0.00
169, 38327.86, 36841.42, -26615.18, -187500.02, 187500.00, -187500.02, 187500.00, 187500.00, 0.00, 0.00, 0.00
170, 38512.64, 36974.72, -26440.86, -187500.02, 187500.00, -187500.02, 187500.00, 187500.00, 0.00, 0.00, 0.00
171, 38604.52, 36748.82, -26102.57, -187500.02, 187500.00, -187500.02, 187500.00, 187500.00, 0.00, 0.00, 0.00
172, 38603.63, 36705.54, -26054.67, -187500.02, 187500.00, -187500.02, 187500.00, 187500.00, 0.00, 0.00, 0.00
173, 38527.28, 37029.57, -26409.97, -187500.02, 187500.00, -187500.02, 187500.00, 187500.00, 0.00, 0.00, 0.00
174, 38532.35, 37119.94, -26512.37, -187500.02, 187500.00, -187500.02, 187500.00, 187500.00, 0.00, 0.00, 0.00
175, 38457.58, 36715.87, -26378.10, -187500.02, 187500.00, -187500.02, 187500.00, 187500.00, 0.00, 0.86, 0.51
176, 38209.23, 36337.39, -26568.24, -187500.02, 187500.00, -187500.02, 187500.00, 187500.00, 0.00, 0.00, 0.00
177, 37835.64, 36349.43, -27228.92, -187500.02, 187500.00, -187500.02, 187500.00, 187500.00, 0.00, 0.00, 0.00
178, 37634.10, 36345.99, -27568.89, -187500.02, 187500.00, -187500.02, 187500.00, 187500.00, 0.00, 0.00, 0.00
179, 37575.20, 35983.49, -27461.33, -187500.02, 187500.00, -187500.02, 187500.00, 187500.00, 0.00, 0.00, 0.00
180, 37397.46, 35589.16, -27556.95, -187500.02, 187500.00, -187500.02, 187500.00, 187500.00, 0.00, 0.00, 0.00
181, 37130.94, 35635.74, -28073.95, -187500.02, 187500.00, -187500.02, 187500.00, 187500.00, 0.00, 0.00, 0.00
182, 37000.05, 35780.40, -28332.89, -187500.02, 187500.00, -187500.02, 187500.00, 187500.00, 0.00, 0.00, 0.00
183, 37018.02, 35542.02, -28103.43, -187500.02, 187500.00, -187500.02, 187500.00, 187500.00, 0.00, 0.00, 0.00
184, 36985.05, 35215.38, -27925.22, -187500.02, 187500.00, -187500.02, 187500.00, 187500.00, 0.00, 0.00, 0.00
185, 36840.73, 35289.76, -28230.39, -187500.02, 187500.00, -187500.02, 187500.00, 187500.00, -0.01, 0.85, 0.50
186, 36798.61, 35637.48, -28427.44, -187500.02, 187500.00, -187500.02, 187500.00, 187500.00, 0.00, 0.00, 0.00
187, 36790.68, 35435.43, -28234.46, -187500.02, 187500.00, -187500.02, 187500.00, 187500.00, 0.00, 0.00, 0.00
188, 36624.52, 34940.67, -28181.88, -187500.02, 187500.00, -187500.02, 187500.00, 187500.00, 0.00, 0.00, 0.00
189, 36268.23, 34731.46, -28707.82, -187500.02, 187500.00, -187500.02, 187500.00, 187500.00, 0.00, 0.00, 0.00
190, 35913.57, 34811.34, -29303.43, -187500.02, 187500.00, -187500.02, 187500.00, 187500.00, 0.00, 0.00, 0.00
191, 35453.51, 34272.38, -29619.55, -187500.02, 187500.00, -187500.02, 187500.00, 187500.00, 0.00, 0.00, 0.00
192, 34999.68, 33484.68, -29818.39, -187500.02, 187500.00, -187500.02, 187500.00, 187500.00, 0.00, 0.00, 0.00
193, 34552.93, 33100.21, -30348.95, -187500.02, 187500.00, -187500.02, 187500.00, 187500.00, 0.00, 0.00, 0.00
194, 34341.42, 33330.99, -30830.81, -187500.02, 187500.00, -187500.02, 187500.00, 187500.00, 0.00, 0.00, 0.00
195, 34340.95, 33328.28, -30719.32, -187500.02, 187500.00, -187500.02, 187500.00, 187500.00, -0.01, 0.84, 0.51
196, 34320.12, 32939.27, -30434.96, -187500.02, 187500.00, -187500.02, 187500.00, 187500.00, 0.00, 0.00, 0.00
197, 34102.23, 32664.37, -30627.46, -187500.02, 187500.00, -187500.02, 187500.00, 187500.00, 0.00, 0.00, 0.00
198, 34045.48, 33035.39, -30956.36, -187500.02, 187500.00, -187500.02, 187500.00, 187500.00, 0.00, 0.00, 0.00
199, 34155.52, 33231.43, -30836.15, -187500.02, 187500.00, -187500.02, 187500.00, 187500.00, 0.00, 0.00, 0.00
200, 34248.88, 32945.62, -30438.18, -187500.02, 187500.00, -187500.02, 187500.00, 187500.00, 0.00, 0.00, 0.00
201, 34000.71, 32552.21, -30581.61, -187500.02, 187500.00, -187500.02, 187500.00, 187500.00, 0.00, 0.00, 0.00
202, 33751.76, 32663.01, -31137.59, -187500.02, 187500.00, -187500.02, 187500.00, 187500.00, 0.00, 0.00, 0.00
203, 33520.71, 32612.71, -31483.71, -187500.02, 187500.00, -187500.02, 187500.00, 187500.00, 0.00, 0.00, 0.00
204, 33210.51, 31957.54, -31588.58, -187500.02, 187500.00, -187500.02, 187500.00, 187500.00, 0.00, 0.00, 0.00
205, 32913.08, 31405.36, -31799.67, -187500.02, 187500.00, -187500.02, 187500.00, 187500.00, 0.00, 0.86, 0.52
206, 32628.88, 31396.13, -32340.67, -187500.02, 187500.00, -187500.02, 187500.00, 187500.00, 0.00, 0.00, 0.00
207, 32476.66, 31529.04, -32645.32, -187500.02, 187500.00, -187500.02, 187500.00, 187500.00, 0.00, 0.00, 0.00
208, 32484.79, 31255.96, -32412.89, -187500.02, 187500.00, -187500.02, 187500.00, 187500.00, 0.00, 0.00, 0.00
209, 32570.40, 31011.55, -32156.72, -187500.02, 187500.00, -187500.02, 187500.00, 187500.00, 0.00, 0.00, 0.00
210, 32559.63, 31180.86, -32371.38, -187500.02, 187500.00, -187500.02, 187500.00, 187500.00, 0.00, 0.00, 0.00
211, 32728.00, 31704.36, -32441.75, -187500.02, 187500.00, -187500.02, 187500.00, 187500.00, 0.00, 0.00, 0.00
212, 32947.68, 31704.43, -32074.78, -187500.02, 187500.00, -187500.02, 187500.00, 187500.00, 0.00, 0.00, 0.00
213, 33040.97, 31451.79, -31756.87, -187500.02, 187500.00, -187500.02, 187500.00, 187500.00, 0.00, 0.00, 0.00
214, 32832.19, 31364.88, -32095.20, -187500.02, 187500.00, -187500.02, 187500.00, 187500.00, 0.00, 0.00, 0.00
215, 32589.71, 31527.09, -32644.19, -187500.02, 187500.00, -187500.02, 187500.00, 187500.00, 0.02, 0.85, 0.52
216, 32540.58, 31372.37, -32634.71, -187500.02, 187500.00, -187500.02, 187500.00, 187500.00, 0.00, 0.00, 0.00
217, 32625.05, 31076.17, -32312.31, -187500.02, 187500.00, -187500.02, 187500.00, 187500.00, 0.00, 0.00, 0.00
218, 32834.76, 31275.50, -32197.93, -187500.02, 187500.00, -187500.02, 187500.00, 187500.00, 0.00, 0.00, 0.00
219, 33073.27, 31902.24, -32258.84, -187500.02, 187500.00, -187500.02, 187500.00, 187500.00, 0.00, 0.00, 0.00
220, 33266.66, 32086.58, -32082.53, -187500.02, 187500.00, -187500.02, 187500.00, 187500.00, 0.00, 0.00, 0.00
221, 33620.78, 32037.16, -31469.65, -187500.02, 187500.00, -187500.02, 187500.00, 187500.00, 0.00, 0.00, 0.00
222, 33615.30, 31932.93, -31439.16, -187500.02, 187500.00, -187500.02, 187500.00, 187500.00, 0.00, 0.00, 0.00
223, 33624.78, 32357.46, -31733.22, -187500.02, 187500.00, -187500.02, 187500.00, 187500.00, 0.00, 0.00, 0.00
224, 33660.74, 32511.04, -31732.03, -187500.02, 187500.00, -187500.02, 187500.00, 187500.00, 0.00, 0.00, 0.00
225, 33659.71, 32153.86, -31477.42, -187500.02, 187500.00, -187500.02, 187500.00, 187500.00, 0.03, 0.85, 0.52
226, 33534.32, 31859.55, -31548.70, -187500.02, 187500.00, -187500.02, 187500.00, 187500.00, 0.00, 0.00, 0.00
227, 33463.38, 32136.22, -31919.43, -187500.02, 187500.00, -187500.02, 187500.00, 187500.00, 0.00, 0.00, 0.00
228, 33684.46, 32549.37, -31842.67, -187500.02, 187500.00, -187500.02, 187500.00, 187500.00, 0.00, 0.00, 0.00
229, 34061.18, 32605.09, -31189.76, -187500.02, 187500.00, -187500.02, 187500.00, 187500.00, 0.00, 0.00, 0.00
230, 34310.69, 32605.76, -30763.76, -187500.02, 187500.00, -187500.02, 187500.00, 187500.00, 0.00, 0.00, 0.00
231, 34494.13, 33056.30, -30825.85, -187500.02, 187500.00, -187500.02, 187500.00, 187500.00, 0.00, 0.00, 0.00
232, 34734.39, 33595.39, -30762.30, -187500.02, 187500.00, -187500.02, 187500.00, 187500.00, 0.00, 0.00, 0.00
233, 34918.18, 33521.16, -30366.01, -187500.02, 187500.00, -187500.02, 187500.00, 187500.00, 0.00, 0.00, 0.00
234, 34963.69, 33261.09, -30137.97, -187500.02, 187500.00, -187500.02, 187500.00, 187500.00, 0.00, 0.00, 0.00
235, 34737.70, 33227.92, -30541.82, -187500.02, 187500.00, -187500.02, 187500.00, 187500.00, 0.03, 0.85, 0.52
236, 34502.02, 33384.21, -31050.73, -187500.02, 187500.00, -187500.02, 187500.00, 187500.00, 0.00, 0.00, 0.00
237, 34459.35, 33175.11, -30971.18, -187500.02, 187500.00, -187500.02, 187500.00, 187500.00, 0.00, 0.00, 0.00
238, 34512.95, 32869.56, -30695.02, -187500.02, 187500.00, -187500.02, 187500.00, 187500.00, 0.00, 0.00, 0.00
239, 34550.30, 32983.69, -30792.12, -187500.02, 187500.00, -187500.02, 187500.00, 187500.00, 0.00, 0.00, 0.00
240, 34869.12, 33694.74, -30727.70, -187500.02, 187500.00, -187500.02, 187500.00, 187500.00, 0.00, 0.00, 0.00
241, 35300.36, 34031.49, -30181.49, -187500.02, 187500.00, -187500.02, 187500.00, 187500.00, 0.00, 0.00, 0.00
242, 35832.75, 34167.84, -29416.66, -187500.02, 187500.00, -187500.02, 187500.00, 187500.00, 0.00, 0.00, 0.00
243, 36087.25, 34389.97, -29171.04, -187500.02, 187500.00, -187500.02, 187500.00, 187500.00, 0.00, 0.00, 0.00
244, 36178.78, 34877.62, -29388.21, -187500.02, 187500.00, -187500.02, 187500.00, 187500.00, 0.00, 0.00, 0.00
245, 36308.64, 35038.06, -29253.72, -187500.02, 187500.00, -187500.02, 187500.00, 187500.00, 0.01, 0.85, 0.53
246, 36345.50, 34736.87, -28938.09, -187500.02, 187500.00, -187500.02, 187500.00, 187500.00, 0.00, 0.00, 0.00
247, 36313.29, 34591.18, -28955.41, -187500.02, 187500.00, -187500.02, 187500.00, 187500.00, 0.00, 0.00, 0.00
248, 36246.23, 34900.77, -29313.84, -187500.02, 187500.00, -187500.02, 187500.00, 187500.00, 0.00, 0.00, 0.00
249, 36199.05, 34989.62, -29436.44, -187500.02, 187500.00, -187500.02, 187500.00, 187500.00, 0.00, 0.00, 0.00
250, 36354.35, 34799.72, -29048.64, -187500.02, 187500.00, -187500.02, 187500.00, 187500.00, 0.00, 0.00, 0.00
251, 36483.01, 34727.48, -28837.95, -187500.02, 187500.00, -187500.02, 187500.00, 187500.00, 0.00, 0.00, 0.00
252, 36489.87, 35057.10, -29077.07, -187500.02, 187500.00, -187500.02, 187500.00, 187500.00, 0.00, 0.00, 0.00
253, 36558.76, 35361.55, -29144.24, -187500.02, 187500.00, -187500.02, 187500.00, 187500.00, 0.00, 0.00, 0.00
254, 36567.32, 35061.26, -28907.38, -187500.02, 187500.00, -187500.02, 187500.00, 187500.00, 0.00, 0.00, 0.00
255, 36310.65, 34550.01, -29008.65, -187500.02, 187500.00, -187500.02, 187500.00, 187500.00, 0.00, 0.83, 0.52
0, 35808.32, 34310.82, -29743.40, -187500.02, 187500.00, -187500.02, 187500.00, 187500.00, 0.00, 0.00, 0.00
1, 35400.27, 34237.42, -30367.84, -187500.02, 187500.00, -187500.02, 187500.00, 187500.00, 0.00, 0.00, 0.00
2, 35114.30, 33720.27, -30477.59, -187500.02, 187500.00, -187500.02, 187500.00, 187500.00, 0.00, 0.00, 0.00
3, 34720.50, 33010.26, -30687.92, -187500.02, 187500.00, -187500.02, 187500.00, 187500.00, 0.00, 0.00, 0.00
4, 34239.38, 32702.10, -31371.79, -187500.02, 187500.00, -187500.02, 187500.00, 187500.00, 0.00, 0.00, 0.00
5, 33859.90, 32713.65, -32004.66, -187500.02, 187500.00, -187500.02, 187500.00, 187500.00, 0.00, 0.00, 0.00
6, 33694.83, 32403.75, -32022.65, -187500.02, 187500.00, -187500.02, 187500.00, 187500.00, 0.00, 0.00, 0.00
7, 33462.41, 31827.07, -32019.23, -187500.02, 187500.00, -187500.02, 187500.00, 187500.00, 0.00, 0.00, 0.00
8, 33264.67, 31655.41, -32344.11, -187500.02, 187500.00, -187500.02, 187500.00, 187500.00, 0.01, 0.85, 0.53
9, 33165.16, 31999.27, -32701.52, -187500.02, 187500.00, -187500.02, 187500.00, 187500.00, 0.00, 0.00, 0.00
10, 33145.49, 31926.31, -32617.81, -187500.02, 187500.00, -187500.02, 187500.00, 187500.00, 0.00, 0.00, 0.00
11, 33139.72, 31548.44, -32387.99, -187500.02, 187500.00, -187500.02, 187500.00, 187500.00, 0.00, 0.00, 0.00
12, 33030.11, 31395.86, -32510.90, -187500.02, 187500.00, -187500.02, 187500.00, 187500.00, 0.00, 0.00, 0.00
13, 33032.82, 31788.87, -32814.50, -187500.02, 187500.00, -187500.02, 187500.00, 187500.00, 0.00, 0.00, 0.00
14, 33122.13, 31912.12, -32720.85, -187500.02, 187500.00, -187500.02, 187500.00, 187500.00, 0.00, 0.00, 0.00
15, 33216.32, 31628.79, -32362.80, -187500.02, 187500.00, -187500.02, 187500.00, 187500.00, 0.00, 0.00, 0.00
16, 33269.81, 31540.79, -32292.57, -187500.02, 187500.00, -187500.02, 187500.00, 187500.00, 0.00, 0.00, 0.00
17, 33309.38, 31919.77, -32521.99, -187500.02, 187500.00, -187500.02, 187500.00, 187500.00, 0.00, 0.00, 0.00
18, 33276.09, 32025.67, -32642.84, -187500.02, 187500.00, -187500.02, 187500.00, 187500.00, 0.01, 0.85, 0.53
19, 33437.92, 31838.47, -32247.98, -187500.02, 187500.00, -187500.02, 187500.00, 187500.00, 0.00, 0.00, 0.00
20, 33588.82, 31754.96, -32007.27, -187500.02, 187500.00, -187500.02, 187500.00, 187500.00, 0.00, 0.00, 0.00
21, 33639.22, 32082.60, -32227.26, -187500.02, 187500.00, -187500.02, 187500.00, 187500.00, 0.00, 0.00, 0.00
22, 33628.33, 32304.10, -32349.88, -187500.02, 187500.00, -187500.02, 187500.00, 187500.00, 0.00, 0.00, 0.00
23, 33687.72, 32073.72, -32037.31, -187500.02, 187500.00, -187500.02, 187500.00, 187500.00, 0.00, 0.00, 0.00
24, 33622.70, 31727.23, -31946.41, -187500.02, 187500.00, -187500.02, 187500.00, 187500.00, 0.00, 0.00, 0.00
25, 33459.64, 31782.73, -32354.39, -187500.02, 187500.00, -187500.02, 187500.00, 187500.00, 0.00, 0.00, 0.00
26, 33359.60, 32011.34, -32648.99, -187500.02, 187500.00, -187500.02, 187500.00, 187500.00, 0.00, 0.00, 0.00
27, 33311.52, 31739.72, -32481.42, -187500.02, 187500.00, -187500.02, 187500.00, 187500.00, 0.00, 0.00, 0.00
28, 33055.79, 31163.11, -32543.18, -187500.02, 187500.00, -187500.02, 187500.00, 187500.00, 0.02, 0.85, 0.52
29, 32866.36, 31112.13, -32915.76, -187500.02, 187500.00, -187500.02, 187500.00, 187500.00, 0.00, 0.00, 0.00
30, 32641.35, 31264.63, -33366.84, -187500.02, 187500.00, -187500.02, 187500.00, 187500.00, 0.00, 0.00, 0.00
31, 32584.01, 31077.15, -33315.12, -187500.02, 187500.00, -187500.02, 187500.00, 187500.00, 0.00, 0.00, 0.00
32, 32658.54, 30789.26, -32974.05, -187500.02, 187500.00, -187500.02, 187500.00, 187500.00, 0.00, 0.00, 0.00
33, 32522.97, 30676.83, -33185.66, -187500.02, 187500.00, -187500.02, 187500.00, 187500.00, 0.00, 0.00, 0.00
34, 32459.38, 31006.07, -33526.48, -187500.02, 187500.00, -187500.02, 187500.00, 187500.00, 0.00, 0.00, 0.00
35, 32441.01, 30945.21, -33514.85, -187500.02, 187500.00, -187500.02, 187500.00, 187500.00, 0.00, 0.00, 0.00
36, 32627.67, 30750.84, -33076.22, -187500.02, 187500.00, -187500.02, 187500.00, 187500.00, 0.00, 0.00, 0.00
37, 32578.56, 30626.05, -33118.47, -187500.02, 187500.00, -187500.02, 187500.00, 187500.00, 0.00, 0.00, 0.00
38, 32498.03, 30928.89, -33490.20, -187500.02, 187500.00, -187500.02, 187500.00, 187500.00, 0.02, 0.86, 0.52
39, 32554.89, 31054.98, -33456.74, -187500.02, 187500.00, -187500.02, 187500.00, 187500.00, 0.00, 0.00, 0.00
40, 32724.96, 30862.17, -33035.56, -187500.02, 187500.00, -187500.02, 187500.00, 187500.00, 0.00, 0.00, 0.00
41, 32839.23, 30807.10, -32859.77, -187500.02, 187500.00, -187500.02, 187500.00, 187500.00, 0.00, 0.00, 0.00
42, 32854.31, 31171.23, -33129.53, -187500.02, 187500.00, -187500.02, 187500.00, 187500.00, 0.00, 0.00, 0.00
43, 33060.71, 31551.90, -33005.23, -187500.02, 187500.00, -187500.02, 187500.00, 187500.00, 0.00, 0.00, 0.00
44, 33155.75, 31313.52, -32654.36, -187500.02, 187500.00, -187500.02, 187500.00, 187500.00, 0.00, 0.00, 0.00
45, 33029.82, 30972.12, -32653.33, -187500.02, 187500.00, -187500.02, 187500.00, 187500.00, 0.00, 0.00, 0.00
46, 32924.92, 31158.85, -33022.04, -187500.02, 187500.00, -187500.02, 187500.00, 187500.00, 0.00, 0.00, 0.00
47, 32941.75, 31413.97, -33182.06, -187500.02, 187500.00, -187500.02, 187500.00, 187500.00, 0.00, 0.00, 0.00
48, 33021.41, 31208.42, -32910.57, -187500.02, 187500.00, -187500.02, 187500.00, 187500.00, 0.02, 0.85, 0.52
49, 32859.10, 30782.11, -32855.41, -187500.02, 187500.00, -187500.02, 187500.00, 187500.00, 0.00, 0.00, 0.00
50, 32709.45, 30837.20, -33243.66, -187500.02, 187500.00, -187500.02, 187500.00, 187500.00, 0.00, 0.00, 0.00
51, 32718.71, 31168.08, -33431.88, -187500.02, 187500.00, -187500.02, 187500.00, 187500.00, 0.00, 0.00, 0.00
52, 32716.85, 30965.12, -33288.45, -187500.02, 187500.00, -187500.02, 187500.00, 187500.00, 0.00, 0.00, 0.00
53, 32647.13, 30561.63, -33131.61, -187500.02, 187500.00, -187500.02, 187500.00, 187500.00, 0.00, 0.00, 0.00
54, 32493.49, 30522.11, -33433.96, -187500.02, 187500.00, -187500.02, 187500.00, 187500.00, 0.00, 0.00, 0.00
55, 32518.68, 30933.47, -33682.36, -187500.02, 187500.00, -187500.02, 187500.00, 187500.00, 0.00, 0.00, 0.00
56, 32644.25, 30942.28, -33450.79, -187500.02, 187500.00, -187500.02, 187500.00, 187500.00, 0.00, 0.00, 0.00
57, 32723.13, 30661.03, -33127.39, -187500.02, 187500.00, -187500.02, 187500.00, 187500.00, 0.00, 0.00, 0.00
58, 32632.09, 30560.18, -33286.20, -187500.02, 187500.00, -187500.02, 187500.00, 187500.00, 0.01, 0.85, 0.52
59, 32595.03, 30904.77, -33626.52, -187500.02, 187500.00, -187500.02, 187500.00, 187500.00, 0.00, 0.00, 0.00
60, 32583.46, 30899.92, -33581.95, -187500.02, 187500.00, -187500.02, 187500.00, 187500.00, 0.00, 0.00, 0.00
61, 32597.20, 30565.67, -33313.26, -187500.02, 187500.00, -187500.02, 187500.00, 187500.00, 0.00, 0.00, 0.00
62, 32485.87, 30362.79, -33419.37, -187500.02, 187500.00, -187500.02, 187500.00, 187500.00, 0.00, 0.00, 0.00
63, 32414.79, 30657.12, -33788.68, -187500.02, 187500.00, -187500.02, 187500.00, 187500.00, 0.00, 0.00, 0.00
64, 32394.92, 30727.28, -33855.47, -187500.02, 187500.00, -187500.02, 187500.00, 187500.00, 0.00, 0.00, 0.00
65, 32579.32, 30563.80, -33414.89, -187500.02, 187500.00, -187500.02, 187500.00, 187500.00, 0.00, 0.00, 0.00
66, 32535.11, 30339.83, -33375.11, -187500.02, 187500.00, -187500.02, 187500.00, 187500.00, 0.00, 0.00, 0.00
67, 32486.29, 30607.61, -33710.92, -187500.02, 187500.00, -187500.02, 187500.00, 187500.00, 0.00, 0.00, 0.00
68, 32511.95, 30805.08, -33812.09, -187500.02, 187500.00, -187500.02, 187500.00, 187500.00, 0.01, 0.84, 0.53
69, 32559.56, 30571.84, -33491.83, -187500.02, 187500.00, -187500.02, 187500.00, 187500.00, 0.00, 0.00, 0.00
70, 32605.61, 30389.59, -33298.38, -187500.02, 187500.00, -187500.02, 187500.00, 187500.00, 0.00, 0.00, 0.00
71, 32611.17, 30635.61, -33508.77, -187500.02, 187500.00, -187500.02, 187500.00, 187500.00, 0.00, 0.00, 0.00
72, 32683.01, 30980.59, -33609.71, -187500.02, 187500.00, -187500.02, 187500.00, 187500.00, 0.00, 0.00, 0.00
73, 32760.75, 30806.87, -33322.38, -187500.02, 187500.00, -187500.02, 187500.00, 187500.00, 0.00, 0.00, 0.00
74, 32758.54, 30513.21, -33155.21, -187500.02, 187500.00, -187500.02, 187500.00, 187500.00, 0.00, 0.00, 0.00
75, 32604.13, 30528.59, -33478.31, -187500.02, 187500.00, -187500.02, 187500.00, 187500.00, 0.00, 0.00, 0.00
76, 32447.98, 30722.43, -33874.87, -187500.02, 187500.00, -187500.02, 187500.00, 187500.00, 0.00, 0.00, 0.00
77, 32470.15, 30576.98, -33718.25, -187500.02, 187500.00, -187500.02, 187500.00, 187500.00, 0.00, 0.00, 0.00
78, 32523.60, 30302.46, -33436.22, -187500.02, 187500.00, -187500.02, 187500.00, 187500.00, 0.01, 0.84, 0.53
79, 32475.16, 30330.94, -33606.00, -187500.02, 187500.00, -187500.02, 187500.00, 187500.00, 0.00, 0.00, 0.00
80, 32502.14, 30724.28, -33856.95, -187500.02, 187500.00, -187500.02, 187500.00, 187500.00, 0.00, 0.00, 0.00
81, 32673.58, 30813.69, -33598.52, -187500.02, 187500.00, -187500.02, 187500.00, 187500.00, 0.00, 0.00, 0.00
82, 32801.43, 30591.07, -33205.13, -187500.02, 187500.00, -187500.02, 187500.00, 187500.00, 0.00, 0.00, 0.00
83, 32647.90, 30411.80, -33416.44, -187500.02, 187500.00, -187500.02, 187500.00, 187500.00, 0.00, 0.00, 0.00
84, 32573.11, 30723.32, -33786.32, -187500.02, 187500.00, -187500.02, 187500.00, 187500.00, 0.00, 0.00, 0.00
85, 32579.19, 30749.65, -33741.39, -187500.02, 187500.00, -187500.02, 187500.00, 187500.00, 0.00, 0.00, 0.00
86, 32682.12, 30509.41, -33379.60, -187500.02, 187500.00, -187500.02, 187500.00, 187500.00, 0.00, 0.00, 0.00
87, 32591.08, 30315.25, -33439.93, -187500.02, 187500.00, -187500.02, 187500.00, 187500.00, 0.01, 0.85, 0.53
88, 32523.46, 30610.22, -33804.46, -187500.02, 187500.00, -187500.02, 187500.00, 187500.00, 0.00, 0.00, 0.00
89, 32649.26, 30848.40, -33736.25, -187500.02, 187500.00, -187500.02, 187500.00, 187500.00, 0.00, 0.00, 0.00
90, 32683.90, 30540.39, -33434.77, -187500.02, 187500.00, -187500.02, 187500.00, 187500.00, 0.00, 0.00, 0.00
91, 32626.35, 30299.80, -33431.50, -187500.02, 187500.00, -187500.02, 187500.00, 187500.00, 0.00, 0.00, 0.00
92, 32506.88, 30491.98, -33790.58, -187500.02, 187500.00, -187500.02, 187500.00, 187500.00, 0.00, 0.00, 0.00
93, 32481.20, 30689.08, -33962.22, -187500.02, 187500.00, -187500.02, 187500.00, 187500.00, 0.00, 0.00, 0.00
94, 32627.29, 30531.95, -33568.99, -187500.02, 187500.00, -187500.02, 187500.00, 187500.00, 0.00, 0.00, 0.00
95, 32486.27, 30145.17, -33557.03, -187500.02, 187500.00, -187500.02, 187500.00, 187500.00, 0.00, 0.00, 0.00
96, 32438.17, 30338.83, -33836.96, -187500.02, 187500.00, -187500.02, 187500.00, 187500.00, 0.00, 0.00, 0.00
97, 32431.17, 30617.11, -34011.22, -187500.02, 187500.00, -187500.02, 187500.00, 187500.00, 0.00, 0.85, 0.53
98, 32523.17, 30475.89, -33729.90, -187500.02, 187500.00, -187500.02, 187500.00, 187500.00, 0.00, 0.00, 0.00
99, 32597.87, 30243.83, -33459.75, -187500.02, 187500.00, -187500.02, 187500.00, 187500.00, 0.00, 0.00, 0.00
100, 32588.39, 30370.50, -33615.23, -187500.02, 187500.00, -187500.02, 187500.00, 187500.00, 0.00, 0.00, 0.00
101, 32522.08, 30644.98, -33920.31, -187500.02, 187500.00, -187500.02, 187500.00, 187500.00, 0.00, 0.00, 0.00
102, 32638.82, 30613.60, -33686.07, -187500.02, 187500.00, -187500.02, 187500.00, 187500.00, 0.00, 0.00, 0.00
103, 32748.72, 30377.79, -33331.16, -187500.02, 187500.00, -187500.02, 187500.00, 187500.00, 0.00, 0.00, 0.00
104, 32616.33, 30295.17, -33564.41, -187500.02, 187500.00, -187500.02, 187500.00, 187500.00, 0.00, 0.00, 0.00
105, 32453.79, 30518.04, -34001.00, -187500.02, 187500.00, -187500.02, 187500.00, 187500.00, 0.00, 0.00, 0.00
106, 32448.79, 30465.29, -33950.46, -187500.02, 187500.00, -187500.02, 187500.00, 187500.00, 0.00, 0.00, 0.00
107, 32559.61, 30229.41, -33577.50, -187500.02, 187500.00, -187500.02, 187500.00, 187500.00, 0.00, 0.84, 0.53
108, 32438.15, 30060.41, -33724.00, -187500.02, 187500.00, -187500.02, 187500.00, 187500.00, 0.00, 0.00, 0.00
109, 32338.41, 30334.69, -34112.98, -187500.02, 187500.00, -187500.02, 187500.00, 187500.00, 0.00, 0.00, 0.00
110, 32367.07, 30407.49, -34095.26, -187500.02, 187500.00, -187500.02, 187500.00, 187500.00, 0.00, 0.00, 0.00
111, 32470.06, 30165.76, -33715.39, -187500.02, 187500.00, -187500.02, 187500.00, 187500.00, 0.00, 0.00, 0.00
112, 32423.80, 29992.87, -33728.71, -187500.02, 187500.00, -187500.02, 187500.00, 187500.00, 0.00, 0.00, 0.00
113, 32360.05, 30267.86, -34078.61, -187500.02, 187500.00, -187500.02, 187500.00, 187500.00, 0.00, 0.00, 0.00
114, 32536.38, 30573.81, -33983.10, -187500.02, 187500.00, -187500.02, 187500.00, 187500.00, 0.00, 0.00, 0.00
115, 32650.18, 30363.86, -33588.43, -187500.02, 187500.00, -187500.02, 187500.00, 187500.00, 0.00, 0.00, 0.00
116, 32468.61, 29992.24, -33670.36, -187500.02, 187500.00, -187500.02, 187500.00, 187500.00, 0.00, 0.00, 0.00
117, 32370.89, 30188.24, -34041.44, -187500.02, 187500.00, -187500.02, 187500.00, 187500.00, 0.01, 0.83, 0.52
118, 32287.56, 30334.09, -34249.71, -187500.02, 187500.00, -187500.02, 187500.00, 187500.00, 0.00, 0.00, 0.00
119, 32313.56, 30100.15, -34024.25, -187500.02, 187500.00, -187500.02, 187500.00, 187500.00, 0.00, 0.00, 0.00
120, 32306.92, 29830.48, -33844.68, -187500.02, 187500.00, -187500.02, 187500.00, 187500.00, 0.00, 0.00, 0.00
121, 32100.61, 29841.84, -34281.29, -187500.02, 187500.00, -187500.02, 187500.00, 187500.00, 0.00, 0.00, 0.00
122, 32114.00, 30162.45, -34476.36, -187500.02, 187500.00, -187500.02, 187500.00, 187500.00, 0.00, 0.00, 0.00
123, 32198.54, 30030.71, -34214.26, -187500.02, 187500.00, -187500.02, 187500.00, 187500.00, 0.00, 0.00, 0.00
124, 32289.64, 29807.39, -33920.11, -187500.02, 187500.00, -187500.02, 187500.00, 187500.00, 0.00, 0.00, 0.00
125, 32203.97, 29842.24, -34172.11, -187500.02, 187500.00, -187500.02, 187500.00, 187500.00, 0.00, 0.00, 0.00
126, 32226.99, 30214.17, -34405.03, -187500.02, 187500.00, -187500.02, 187500.00, 187500.00, 0.00, 0.00, 0.00
127, 32327.80, 30175.05, -34180.75, -187500.02, 187500.00, -187500.02, 187500.00, 187500.00, 0.00, 0.85, 0.52
128, 32306.05, 29804.24, -33988.93, -187500.02, 187500.00, -187500.02, 187500.00, 187500.00, 0.00, 0.00, 0.00
129, 32199.81, 29724.13, -34231.52, -187500.02, 187500.00, -187500.02, 187500.00, 187500.00, 0.00, 0.00, 0.00
130, 32283.96, 30179.39, -34434.36, -187500.02, 187500.00, -187500.02, 187500.00, 187500.00, 0.00, 0.00, 0.00
131, 32355.22, 30202.59, -34287.24, -187500.02, 187500.00, -187500.02, 187500.00, 187500.00, 0.00, 0.00, 0.00
132, 32274.89, 29773.10, -34133.37, -187500.02, 187500.00, -187500.02, 187500.00, 187500.00, 0.00, 0.00, 0.00
133, 32136.15, 29569.55, -34317.50, -187500.02, 187500.00, -187500.02, 187500.00, 187500.00, 0.00, 0.00, 0.00
134, 31987.49, 29788.93, -34768.56, -187500.02, 187500.00, -187500.02, 187500.00, 187500.00, 0.00, 0.00, 0.00
135, 32059.98, 29920.18, -34710.74, -187500.02, 187500.00, -187500.02, 187500.00, 187500.00, 0.00, 0.00, 0.00
136, 32165.10, 29683.74, -34335.45, -187500.02, 187500.00, -187500.02, 187500.00, 187500.00, 0.00, 0.00, 0.00
137, 32134.23, 29509.58, -34324.86, -187500.02, 187500.00, -187500.02, 187500.00, 187500.00, 0.00, 0.85, 0.52
138, 32069.54, 29776.57, -34661.00, -187500.02, 187500.00, -187500.02, 187500.00, 187500.00, 0.00, 0.00, 0.00
139, 32087.72, 29952.30, -34732.48, -187500.02, 187500.00, -187500.02, 187500.00, 187500.00, 0.00, 0.00, 0.00
140, 32127.37, 29690.34, -34465.96, -187500.02, 187500.00, -187500.02, 187500.00, 187500.00, 0.00, 0.00, 0.00
141, 32079.85, 29434.81, -34413.15, -187500.02, 187500.00, -187500.02, 187500.00, 187500.00, 0.00, 0.00, 0.00
142, 32007.18, 29634.12, -34744.40, -187500.02, 187500.00, -187500.02, 187500.00, 187500.00, 0.00, 0.00, 0.00
143, 32108.01, 29981.87, -34806.02, -187500.02, 187500.00, -187500.02, 187500.00, 187500.00, 0.00, 0.00, 0.00
144, 32220.89, 29839.11, -34471.35, -187500.02, 187500.00, -187500.02, 187500.00, 187500.00, 0.00, 0.00, 0.00
145, 32240.24, 29597.35, -34284.07, -187500.02, 187500.00, -187500.02, 187500.00, 187500.00, 0.00, 0.00, 0.00
146, 32147.57, 29705.33, -34596.07, -187500.02, 187500.00, -187500.02, 187500.00, 187500.00, 0.00, 0.00, 0.00
147, 32270.11, 30140.46, -34674.95, -187500.02, 187500.00, -187500.02, 187500.00, 187500.00, 0.01, 0.84, 0.52
148, 32327.80, 30006.48, -34435.34, -187500.02, 187500.00, -187500.02, 187500.00, 187500.00, 0.00, 0.00, 0.00
149, 32337.97, 29713.20, -34230.27, -187500.02, 187500.00, -187500.02, 187500.00, 187500.00, 0.00, 0.00, 0.00
150, 32267.40, 29741.19, -34456.80, -187500.02, 187500.00, -187500.02, 187500.00, 187500.00, 0.00, 0.00, 0.00
151, 32303.25, 30125.99, -34682.13, -187500.02, 187500.00, -187500.02, 187500.00, 187500.00, 0.00, 0.00, 0.00
152, 32420.62, 30144.28, -34446.05, -187500.02, 187500.00, -187500.02, 187500.00, 187500.00, 0.00, 0.00, 0.00
153, 32582.23, 29986.29, -34032.18, -187500.02, 187500.00, -187500.02, 187500.00, 187500.00, 0.00, 0.00, 0.00
154, 32555.49, 29971.52, -34120.96, -187500.02, 187500.00, -187500.02, 187500.00, 187500.00, 0.00, 0.00, 0.00
155, 32480.01, 30268.42, -34481.48, -187500.02, 187500.00, -187500.02, 187500.00, 187500.00, 0.00, 0.00, 0.00
156, 32552.48, 30340.97, -34380.69, -187500.02, 187500.00, -187500.02, 187500.00, 187500.00, 0.00, 0.00, 0.00
157, 32646.76, 30095.93, -34015.29, -187500.02, 187500.00, -187500.02, 187500.00, 187500.00, 0.01, 0.85, 0.52
158, 32538.55, 29911.26, -34135.40, -187500.02, 187500.00, -187500.02, 187500.00, 187500.00, 0.00, 0.00, 0.00
159, 32473.19, 30200.76, -34491.91, -187500.02, 187500.00, -187500.02, 187500.00, 187500.00, 0.00, 0.00, 0.00
160, 32599.64, 30409.66, -34386.10, -187500.02, 187500.00, -187500.02, 187500.00, 187500.00, 0.00, 0.00, 0.00
161, 32798.66, 30281.88, -33940.41, -187500.02, 187500.00, -187500.02, 187500.00, 187500.00, 0.00, 0.00, 0.00
162, 32867.39, 30174.21, -33795.99, -187500.02, 187500.00, -187500.02, 187500.00, 187500.00, 0.00, 0.00, 0.00
163, 32704.65, 30317.19, -34229.39, -187500.02, 187500.00, -187500.02, 187500.00, 187500.00, 0.00, 0.00, 0.00
164, 32666.71, 30457.25, -34392.88, -187500.02, 187500.00, -187500.02, 187500.00, 187500.00, 0.00, 0.00, 0.00
165, 32708.69, 30200.60, -34109.34, -187500.02, 187500.00, -187500.02, 187500.00, 187500.00, 0.00, 0.00, 0.00
166, 32556.72, 29821.36, -34146.18, -187500.02, 187500.00, -187500.02, 187500.00, 187500.00, 0.00, 0.00, 0.00
167, 32435.33, 29956.23, -34518.18, -187500.02, 187500.00, -187500.02, 187500.00, 187500.00, 0.01, 0.85, 0.52
168, 32448.54, 30226.67, -34666.26, -187500.02, 187500.00, -187500.02, 187500.00, 187500.00, 0.00, 0.00, 0.00
169, 32573.93, 30113.19, -34327.16, -187500.02, 187500.00, -187500.02, 187500.00, 187500.00, 0.00, 0.00, 0.00
170, 32621.05, 29883.57, -34095.26, -187500.02, 187500.00, -187500.02, 187500.00, 187500.00, 0.00, 0.00, 0.00
171, 32492.30, 29921.68, -34415.27, -187500.02, 187500.00, -187500.02, 187500.00, 187500.00, 0.00, 0.00, 0.00
172, 32492.19, 30250.38, -34649.72, -187500.02, 187500.00, -187500.02, 187500.00, 187500.00, 0.00, 0.00, 0.00
173, 32499.46, 30088.20, -34458.70, -187500.02, 187500.00, -187500.02, 187500.00, 187500.00, 0.00, 0.00, 0.00
174, 32433.05, 29718.63, -34324.95, -187500.02, 187500.00, -187500.02, 187500.00, 187500.00, 0.00, 0.00, 0.00
175, 32264.81, 29627.13, -34628.95, -187500.02, 187500.00, -187500.02, 187500.00, 187500.00, 0.00, 0.00, 0.00
176, 32253.74, 29979.97, -34911.48, -187500.02, 187500.00, -187500.02, 187500.00, 187500.00, 0.01, 0.85, 0.52
177, 32388.21, 30030.44, -34653.61, -187500.02, 187500.00, -187500.02, 187500.00, 187500.00, 0.00, 0.00, 0.00
178, 32418.50, 29727.04, -34361.18, -187500.02, 187500.00, -187500.02, 187500.00, 187500.00, 0.00, 0.00, 0.00
179, 32368.45, 29663.54, -34476.52, -187500.02, 187500.00, -187500.02, 187500.00, 187500.00, 0.00, 0.00, 0.00
180, 32274.60, 29940.14, -34849.86, -187500.02, 187500.00, -187500.02, 187500.00, 187500.00, 0.00, 0.00, 0.00
181, 32386.58, 30066.96, -34700.39, -187500.02, 187500.00, -187500.02, 187500.00, 187500.00, 0.00, 0.00, 0.00
182, 32604.47, 29954.22, -34218.69, -187500.02, 187500.00, -187500.02, 187500.00, 187500.00, 0.00, 0.00, 0.00
183, 32606.97, 29852.52, -34182.61, -187500.02, 187500.00, -187500.02, 187500.00, 187500.00, 0.00, 0.00, 0.00
184, 32533.16, 30127.16, -34540.73, -187500.02, 187500.00, -187500.02, 187500.00, 187500.00, 0.00, 0.00, 0.00
185, 32595.14, 30297.52, -34521.64, -187500.02, 187500.00, -187500.02, 187500.00, 187500.00, 0.00, 0.00, 0.00
186, 32644.36, 30034.02, -34219.31, -187500.02, 187500.00, -187500.02, 187500.00, 187500.00, 0.00, 0.85, 0.53
187, 32602.10, 29814.61, -34213.46, -187500.02, 187500.00, -187500.02, 187500.00, 187500.00, 0.00, 0.00, 0.00
188, 32598.21, 30103.98, -34480.22, -187500.02, 187500.00, -187500.02, 187500.00, 187500.00, 0.00, 0.00, 0.00
189, 32657.08, 30362.18, -34525.13, -187500.02, 187500.00, -187500.02, 187500.00, 187500.00, 0.00, 0.00, 0.00
190, 32897.65, 30326.69, -34057.13, -187500.02, 187500.00, -187500.02, 187500.00, 187500.00, 0.00, 0.00, 0.00
191, 32932.48, 30117.01, -33868.32, -187500.02, 187500.00, -187500.02, 187500.00, 187500.00, 0.00, 0.00, 0.00
192, 32810.10, 30219.74, -34229.04, -187500.02, 187500.00, -187500.02, 187500.00, 187500.00, 0.00, 0.00, 0.00
193, 32742.76, 30426.31, -34480.22, -187500.02, 187500.00, -187500.02, 187500.00, 187500.00, 0.00, 0.00, 0.00
194, 32824.54, 30301.54, -34217.43, -187500.02, 187500.00, -187500.02, 187500.00, 187500.00, 0.00, 0.00, 0.00
195, 32860.37, 30052.54, -33981.67, -187500.02, 187500.00, -187500.02, 187500.00, 187500.00, 0.00, 0.00, 0.00
196, 32732.23, 30061.66, -34277.61, -187500.02, 187500.00, -187500.02, 187500.00, 187500.00, -0.00, 0.85, 0.52
197, 32778.14, 30431.72, -34457.20, -187500.02, 187500.00, -187500.02, 187500.00, 187500.00, 0.00, 0.00, 0.00
198, 32894.32, 30409.68, -34193.12, -187500.02, 187500.00, -187500.02, 187500.00, 187500.00, 0.00, 0.00, 0.00
199, 32929.84, 30131.87, -33944.97, -187500.02, 187500.00, -187500.02, 187500.00, 187500.00, 0.00, 0.00, 0.00
200, 32768.84, 30015.11, -34226.11, -187500.02, 187500.00, -187500.02, 187500.00, 187500.00, 0.00, 0.00, 0.00
201, 32770.05, 30355.30, -34494.46, -187500.02, 187500.00, -187500.02, 187500.00, 187500.00, 0.00, 0.00, 0.00
202, 32834.36, 30360.24, -34354.00, -187500.02, 187500.00, -187500.02, 187500.00, 187500.00, 0.00, 0.00, 0.00
203, 32890.21, 30107.73, -34070.29, -187500.02, 187500.00, -187500.02, 187500.00, 187500.00, 0.00, 0.00, 0.00
204, 32781.85, 29956.32, -34222.24, -187500.02, 187500.00, -187500.02, 187500.00, 187500.00, 0.00, 0.00, 0.00
205, 32737.50, 30260.46, -34558.50, -187500.02, 187500.00, -187500.02, 187500.00, 187500.00, 0.00, 0.00, 0.00
206, 32823.89, 30384.69, -34437.49, -187500.02, 187500.00, -187500.02, 187500.00, 187500.00, 0.00, 0.85, 0.52
207, 32922.91, 30177.69, -34098.17, -187500.02, 187500.00, -187500.02, 187500.00, 187500.00, 0.00, 0.00, 0.00
208, 32849.75, 29977.55, -34144.05, -187500.02, 187500.00, -187500.02, 187500.00, 187500.00, 0.00, 0.00, 0.00
209, 32759.36, 30201.52, -34509.30, -187500.02, 187500.00, -187500.02, 187500.00, 187500.00, 0.00, 0.00, 0.00
210, 32747.79, 30313.84, -34578.64, -187500.02, 187500.00, -187500.02, 187500.00, 187500.00, 0.00, 0.00, 0.00
211, 32883.62, 30165.29, -34218.53, -187500.02, 187500.00, -187500.02, 187500.00, 187500.00, 0.00, 0.00, 0.00
212, 32856.10, 29945.88, -34147.99, -187500.02, 187500.00, -187500.02, 187500.00, 187500.00, 0.00, 0.00, 0.00
213, 32702.28, 30065.67, -34549.00, -187500.02, 187500.00, -187500.02, 187500.00, 187500.00, 0.00, 0.00, 0.00
214, 32818.84, 30395.53, -34559.89, -187500.02, 187500.00, -187500.02, 187500.00, 187500.00, 0.00, 0.00, 0.00
215, 33001.52, 30334.89, -34148.14, -187500.02, 187500.00, -187500.02, 187500.00, 187500.00, 0.00, 0.00, 0.00
216, 33009.66, 30093.20, -33994.34, -187500.02, 187500.00, -187500.02, 187500.00, 187500.00, 0.00, 0.84, 0.52
217, 32927.29, 30208.02, -34301.52, -187500.02, 187500.00, -187500.02, 187500.00, 187500.00, 0.00, 0.00, 0.00
218, 32933.30, 30484.94, -34477.14, -187500.02, 187500.00, -187500.02, 187500.00, 187500.00, 0.00, 0.00, 0.00
219, 33070.25, 30442.94, -34180.93, -187500.02, 187500.00, -187500.02, 187500.00, 187500.00, 0.00, 0.00, 0.00
220, 33087.67, 30167.61, -33945.06, -187500.02, 187500.00, -187500.02, 187500.00, 187500.00, 0.00, 0.00, 0.00
221, 32969.74, 30168.66, -34226.35, -187500.02, 187500.00, -187500.02, 187500.00, 187500.00, 0.00, 0.00, 0.00
222, 32962.27, 30504.34, -34474.70, -187500.02, 187500.00, -187500.02, 187500.00, 187500.00, 0.00, 0.00, 0.00
223, 33076.69, 30488.16, -34214.20, -187500.02, 187500.00, -187500.02, 187500.00, 187500.00, 0.00, 0.00, 0.00
224, 33115.16, 30197.99, -33949.75, -187500.02, 187500.00, -187500.02, 187500.00, 187500.00, 0.00, 0.00, 0.00
225, 33083.04, 30206.62, -34091.64, -187500.02, 187500.00, -187500.02, 187500.00, 187500.00, 0.00, 0.00, 0.00
226, 33130.49, 30607.54, -34287.48, -187500.02, 187500.00, -187500.02, 187500.00, 187500.00, 0.00, 0.84, 0.53
227, 33193.50, 30631.79, -34154.40, -187500.02, 187500.00, -187500.02, 187500.00, 187500.00, 0.00, 0.00, 0.00
228, 33317.80, 30424.77, -33788.62, -187500.02, 187500.00, -187500.02, 187500.00, 187500.00, 0.00, 0.00, 0.00
229, 33238.77, 30285.47, -33905.63, -187500.02, 187500.00, -187500.02, 187500.00, 187500.00, 0.00, 0.00, 0.00
230, 33201.82, 30596.54, -34217.05, -187500.02, 187500.00, -187500.02, 187500.00, 187500.00, 0.00, 0.00, 0.00
231, 33122.42, 30568.87, -34291.22, -187500.02, 187500.00, -187500.02, 187500.00, 187500.00, 0.00, 0.00, 0.00
232, 33219.34, 30360.84, -33952.45, -187500.02, 187500.00, -187500.02, 187500.00, 187500.00, 0.00, 0.00, 0.00
233, 33135.03, 30139.63, -33999.86, -187500.02, 187500.00, -187500.02, 187500.00, 187500.00, 0.00, 0.00, 0.00
234, 33149.09, 30474.17, -34281.05, -187500.02, 187500.00, -187500.02, 187500.00, 187500.00, 0.00, 0.00, 0.00
235, 33186.17, 30656.60, -34294.13, -187500.02, 187500.00, -187500.02, 187500.00, 187500.00, 0.00, 0.00, 0.00
236, 33284.12, 30470.19, -33957.73, -187500.02, 187500.00, -187500.02, 187500.00, 187500.00, 0.01, 0.85, 0.53
237, 33273.72, 30257.89, -33859.25, -187500.02, 187500.00, -187500.02, 187500.00, 187500.00, 0.00, 0.00, 0.00
238, 33162.66, 30403.82, -34245.20, -187500.02, 187500.00, -187500.02, 187500.00, 187500.00, 0.00, 0.00, 0.00
239, 33207.20, 30678.86, -34354.38, -187500.02, 187500.00, -187500.02, 187500.00, 187500.00, 0.00, 0.00, 0.00
240, 33293.88, 30520.32, -34050.27, -187500.02, 187500.00, -187500.02, 187500.00, 187500.00, 0.00, 0.00, 0.00
241, 33292.36, 30259.92, -33902.05, -187500.02, 187500.00, -187500.02, 187500.00, 187500.00, 0.00, 0.00, 0.00
242, 33183.02, 30334.91, -34212.41, -187500.02, 187500.00, -187500.02, 187500.00, 187500.00, 0.00, 0.00, 0.00
243, 33173.34, 30624.44, -34420.84, -187500.02, 187500.00, -187500.02, 187500.00, 187500.00, 0.00, 0.00, 0.00
244, 33314.56, 30584.96, -34110.55, -187500.02, 187500.00, -187500.02, 187500.00, 187500.00, 0.00, 0.00, 0.00
245, 33374.35, 30345.04, -33836.43, -187500.02, 187500.00, -187500.02, 187500.00, 187500.00, 0.00, 0.00, 0.00
246, 33240.98, 30314.13, -34130.00, -187500.02, 187500.00, -187500.02, 187500.00, 187500.00, 0.01, 0.84, 0.52
247, 33124.43, 30542.34, -34466.37, -187500.02, 187500.00, -187500.02, 187500.00, 187500.00, 0.00, 0.00, 0.00
248, 33130.09, 30449.85, -34343.70, -187500.02, 187500.00, -187500.02, 187500.00, 187500.00, 0.00, 0.00, 0.00
249, 33216.84, 30217.63, -34025.52, -187500.02, 187500.00, -187500.02, 187500.00, 187500.00, 0.00, 0.00, 0.00
250, 33153.87, 30156.37, -34179.66, -187500.02, 187500.00, -187500.02, 187500.00, 187500.00, 0.00, 0.00, 0.00
251, 33229.20, 30586.57, -34375.66, -187500.02, 187500.00, -187500.02, 187500.00, 187500.00, 0.00, 0.00, 0.00
252, 33298.36, 30645.83, -34215.29, -187500.02, 187500.00, -187500.02, 187500.00, 187500.00, 0.00, 0.00, 0.00
253, 33372.50, 30405.32, -33898.48, -187500.02, 187500.00, -187500.02, 187500.00, 187500.00, 0.00, 0.00, 0.00
254, 33366.30, 30324.52, -33921.50, -187500.02, 187500.00, -187500.02, 187500.00, 187500.00, 0.00, 0.00, 0.00
255, 33276.74, 30569.38, -34286.73, -187500.02, 187500.00, -187500.02, 187500.00, 187500.00, 0.01, 0.85, 0.53
0, 33359.64, 30724.95, -34235.99, -187500.02, 187500.00, -187500.02, 187500.00, 187500.00, 0.00, 0.00, 0.00
1, 33472.32, 30529.71, -33860.70, -187500.02, 187500.00, -187500.02, 187500.00, 187500.00, 0.00, 0.00, 0.00
2, 33448.78, 30361.49, -33826.59, -187500.02, 187500.00, -187500.02, 187500.00, 187500.00, 0.00, 0.00, 0.00
3, 33335.79, 30552.55, -34200.27, -187500.02, 187500.00, -187500.02, 187500.00, 187500.00, 0.00, 0.00, 0.00
4, 33289.64, 30676.11, -34339.95, -187500.02, 187500.00, -187500.02, 187500.00, 187500.00, 0.00, 0.00, 0.00
5, 33457.63, 30569.61, -33934.77, -187500.02, 187500.00, -187500.02, 187500.00, 187500.00, 0.00, 0.00, 0.00
6, 33410.85, 30308.65, -33862.58, -187500.02, 187500.00, -187500.02, 187500.00, 187500.00, 0.00, 0.00, 0.00
7, 33326.18, 30467.17, -34179.68, -187500.02, 187500.00, -187500.02, 187500.00, 187500.00, 0.00, 0.00, 0.00
8, 33338.48, 30724.68, -34313.73, -187500.02, 187500.00, -187500.02, 187500.00, 187500.00, 0.00, 0.00, 0.00
9, 33454.70, 30607.16, -34008.02, -187500.02, 187500.00, -187500.02, 187500.00, 187500.00, 0.01, 0.84, 0.53
10, 33456.71, 30334.09, -33866.96, -187500.02, 187500.00, -187500.02, 187500.00, 187500.00, 0.00, 0.00, 0.00
11, 33359.69, 30416.57, -34216.03, -187500.02, 187500.00, -187500.02, 187500.00, 187500.00, 0.00, 0.00, 0.00
12, 33359.95, 30733.40, -34368.42, -187500.02, 187500.00, -187500.02, 187500.00, 187500.00, 0.00, 0.00, 0.00
13, 33394.36, 30613.24, -34135.72, -187500.02, 187500.00, -187500.02, 187500.00, 187500.00, 0.00, 0.00, 0.00
14, 33460.63, 30375.08, -33848.23, -187500.02, 187500.00, -187500.02, 187500.00, 187500.00, 0.00, 0.00, 0.00
15, 33332.15, 30326.87, -34134.06, -187500.02, 187500.00, -187500.02, 187500.00, 187500.00, 0.00, 0.00, 0.00
16, 33305.26, 30651.35, -34412.66, -187500.02, 187500.00, -187500.02, 187500.00, 187500.00, 0.00, 0.00, 0.00
17, 33384.41, 30653.76, -34212.96, -187500.02, 187500.00, -187500.02, 187500.00, 187500.00, 0.00, 0.00, 0.00
18, 33352.58, 30304.58, -33996.58, -187500.02, 187500.00, -187500.02, 187500.00, 187500.00, 0.00, 0.00, 0.00
19, 33255.28, 30201.23, -34176.46, -187500.02, 187500.00, -187500.02, 187500.00, 187500.00, 0.01, 0.84, 0.53
20, 33226.74, 30529.55, -34480.61, -187500.02, 187500.00, -187500.02, 187500.00, 187500.00, 0.00, 0.00, 0.00
21, 33332.37, 30638.50, -34318.00, -187500.02, 187500.00, -187500.02, 187500.00, 187500.00, 0.00, 0.00, 0.00
22, 33463.69, 30442.07, -33939.67, -187500.02, 187500.00, -187500.02, 187500.00, 187500.00, 0.00, 0.00, 0.00
23, 33389.06, 30272.58, -34020.58, -187500.02, 187500.00, -187500.02, 187500.00, 187500.00, 0.00, 0.00, 0.00
24, 33290.53, 30511.14, -34399.64, -187500.02, 187500.00, -187500.02, 187500.00, 187500.00, 0.00, 0.00, 0.00
25, 33352.02, 30668.00, -34373.09, -187500.02, 187500.00, -187500.02, 187500.00, 187500.00, 0.00, 0.00, 0.00
26, 33420.26, 30438.65, -34049.80, -187500.02, 187500.00, -187500.02, 187500.00, 187500.00, 0.00, 0.00, 0.00
27, 33416.50, 30273.89, -33997.98, -187500.02, 187500.00, -187500.02, 187500.00, 187500.00, 0.00, 0.00, 0.00
28, 33302.02, 30440.82, -34371.44, -187500.02, 187500.00, -187500.02, 187500.00, 187500.00, 0.00, 0.00, 0.00
29, 33416.30, 30738.47, -34358.96, -187500.02, 187500.00, -187500.02, 187500.00, 187500.00, 0.01, 0.84, 0.52
30, 33527.35, 30573.59, -33988.71, -187500.02, 187500.00, -187500.02, 187500.00, 187500.00, 0.00, 0.00, 0.00
31, 33475.29, 30304.16, -33912.04, -187500.02, 187500.00, -187500.02, 187500.00, 187500.00, 0.00, 0.00, 0.00
32, 33379.65, 30442.07, -34231.76, -187500.02, 187500.00, -187500.02, 187500.00, 187500.00, 0.00, 0.00, 0.00
33, 33364.76, 30683.98, -34406.20, -187500.02, 187500.00, -187500.02, 187500.00, 187500.00, 0.00, 0.00, 0.00
34, 33472.05, 30575.80, -34109.97, -187500.02, 187500.00, -187500.02, 187500.00, 187500.00, 0.00, 0.00, 0.00
35, 33420.95, 30253.40, -33972.68, -187500.02, 187500.00, -187500.02, 187500.00, 187500.00, 0.00, 0.00, 0.00
36, 33349.45, 30330.94, -34232.41, -187500.02, 187500.00, -187500.02, 187500.00, 187500.00, 0.00, 0.00, 0.00
37, 33240.55, 30524.05, -34547.21, -187500.02, 187500.00, -187500.02, 187500.00, 187500.00, 0.00, 0.00, 0.00
38, 33300.84, 30441.53, -34358.45, -187500.02, 187500.00, -187500.02, 187500.00, 187500.00, 0.00, 0.00, 0.00
39, 33347.17, 30180.58, -34100.20, -187500.02, 187500.00, -187500.02, 187500.00, 187500.00, 0.01, 0.84, 0.52
40, 33255.62, 30144.77, -34304.20, -187500.02, 187500.00, -187500.02, 187500.00, 187500.00, 0.00, 0.00, 0.00
41, 33242.88, 30492.70, -34579.62, -187500.02, 187500.00, -187500.02, 187500.00, 187500.00, 0.00, 0.00, 0.00
42, 33352.29, 30544.19, -34367.46, -187500.02, 187500.00, -187500.02, 187500.00, 187500.00, 0.00, 0.00, 0.00
43, 33484.88, 30368.06, -33989.98, -187500.02, 187500.00, -187500.02, 187500.00, 187500.00, 0.00, 0.00, 0.00
44, 33381.50, 30237.28, -34143.00, -187500.02, 187500.00, -187500.02, 187500.00, 187500.00, 0.00, 0.00, 0.00
45, 33391.89, 30594.69, -34420.37, -187500.02, 187500.00, -187500.02, 187500.00, 187500.00, 0.00, 0.00, 0.00
46, 33427.95, 30645.34, -34361.27, -187500.02, 187500.00, -187500.02, 187500.00, 187500.00, 0.00, 0.00, 0.00
47, 33517.33, 30423.03, -34027.67, -187500.02, 187500.00, -187500.02, 187500.00, 187500.00, 0.00, 0.00, 0.00
48, 33372.23, 30175.32, -34156.50, -187500.02, 187500.00, -187500.02, 187500.00, 187500.00, 0.00, 0.00, 0.00
49, 33338.48, 30466.30, -34479.18, -187500.02, 187500.00, -187500.02, 187500.00, 187500.00, 0.01, 0.84, 0.53
50, 33390.00, 30622.83, -34463.13, -187500.02, 187500.00, -187500.02, 187500.00, 187500.00, 0.00, 0.00, 0.00
51, 33495.18, 30429.33, -34108.78, -187500.02, 187500.00, -187500.02, 187500.00, 187500.00, 0.00, 0.00, 0.00
52, 33469.57, 30240.86, -34047.52, -187500.02, 187500.00, -187500.02, 187500.00, 187500.00, 0.00, 0.00, 0.00
53, 33351.11, 30397.12, -34402.78, -187500.02, 187500.00, -187500.02, 187500.00, 187500.00, 0.00, 0.00, 0.00
54, 33341.47, 30579.51, -34549.22, -187500.02, 187500.00, -187500.02, 187500.00, 187500.00, 0.00, 0.00, 0.00
55, 33470.64, 30452.66, -34171.84, -187500.02, 187500.00, -187500.02, 187500.00, 187500.00, 0.00, 0.00, 0.00
56, 33466.55, 30223.87, -34040.57, -187500.02, 187500.00, -187500.02, 187500.00, 187500.00, 0.00, 0.00, 0.00
57, 33385.19, 30335.67, -34341.06, -187500.02, 187500.00, -187500.02, 187500.00, 187500.00, 0.00, 0.00, 0.00
58, 33372.58, 30587.60, -34531.77, -187500.02, 187500.00, -187500.02, 187500.00, 187500.00, 0.00, 0.00, 0.00
59, 33496.50, 30515.67, -34213.79, -187500.02, 187500.00, -187500.02, 187500.00, 187500.00, 0.01, 0.84, 0.53
60, 33522.70, 30272.40, -33984.62, -187500.02, 187500.00, -187500.02, 187500.00, 187500.00, 0.00, 0.00, 0.00
61, 33407.41, 30286.79, -34254.45, -187500.02, 187500.00, -187500.02, 187500.00, 187500.00, 0.00, 0.00, 0.00
62, 33355.30, 30552.46, -34538.43, -187500.02, 187500.00, -187500.02, 187500.00, 187500.00, 0.00, 0.00, 0.00
63, 33513.22, 30575.33, -34253.36, -187500.02, 187500.00, -187500.02, 187500.00, 187500.00, 0.00, 0.00, 0.00
64, 33569.61, 30320.70, -33969.96, -187500.02, 187500.00, -187500.02, 187500.00, 187500.00, 0.00, 0.00, 0.00
65, 33526.90, 30316.83, -34112.11, -187500.02, 187500.00, -187500.02, 187500.00, 187500.00, 0.00, 0.00, 0.00
66, 33452.91, 30577.61, -34441.09, -187500.02, 187500.00, -187500.02, 187500.00, 187500.00, 0.00, 0.00, 0.00
67, 33512.86, 30597.17, -34299.85, -187500.02, 187500.00, -187500.02, 187500.00, 187500.00, 0.00, 0.00, 0.00
68, 33544.45, 30318.35, -34020.83, -187500.02, 187500.00, -187500.02, 187500.00, 187500.00, 0.00, 0.00, 0.00
69, 33442.75, 30169.80, -34164.77, -187500.02, 187500.00, -187500.02, 187500.00, 187500.00, 0.01, 0.84, 0.53
70, 33344.31, 30404.92, -34545.69, -187500.02, 187500.00, -187500.02, 187500.00, 187500.00, 0.00, 0.00, 0.00
71, 33400.01, 30510.17, -34470.23, -187500.02, 187500.00, -187500.02, 187500.00, 187500.00, 0.00, 0.00, 0.00
72, 33578.67, 30393.45, -34009.92, -187500.02, 187500.00, -187500.02, 187500.00, 187500.00, 0.00, 0.00, 0.00
73, 33502.31, 30187.82, -34036.61, -187500.02, 187500.00, -187500.02, 187500.00, 187500.00, 0.00, 0.00, 0.00
74, 33393.75, 30393.57, -34448.15, -187500.02, 187500.00, -187500.02, 187500.00, 187500.00, 0.00, 0.00, 0.00
75, 33524.80, 30657.63, -34382.64, -187500.02, 187500.00, -187500.02, 187500.00, 187500.00, 0.00, 0.00, 0.00
76, 33686.80, 30535.37, -33954.94, -187500.02, 187500.00, -187500.02, 187500.00, 187500.00, 0.00, 0.00, 0.00
77, 33625.49, 30290.05, -33930.02, -187500.02, 187500.00, -187500.02, 187500.00, 187500.00, 0.00, 0.00, 0.00
78, 33545.41, 30472.78, -34240.61, -187500.02, 187500.00, -187500.02, 187500.00, 187500.00, 0.00, 0.00, 0.00
79, 33450.84, 30586.97, -34460.91, -187500.02, 187500.00, -187500.02, 187500.00, 187500.00, 0.01, 0.84, 0.54
80, 33580.68, 30476.36, -34150.92, -187500.02, 187500.00, -187500.02, 187500.00, 187500.00, 0.00, 0.00, 0.00
81, 33606.27, 30267.05, -33950.96, -187500.02, 187500.00, -187500.02, 187500.00, 187500.00, 0.00, 0.00, 0.00
82, 33503.72, 30367.97, -34252.93, -187500.02, 187500.00, -187500.02, 187500.00, 187500.00, 0.00, 0.00, 0.00
83, 33457.50, 30601.95, -34478.17, -187500.02, 187500.00, -187500.02, 187500.00, 187500.00, 0.00, 0.00, 0.00
84, 33564.14, 30530.98, -34197.43, -187500.02, 187500.00, -187500.02, 187500.00, 187500.00, 0.00, 0.00, 0.00
85, 33606.85, 30293.79, -33948.03, -187500.02, 187500.00, -187500.02, 187500.00, 187500.00, 0.00, 0.00, 0.00
86, 33485.59, 30278.25, -34223.89, -187500.02, 187500.00, -187500.02, 187500.00, 187500.00, 0.00, 0.00, 0.00
87, 33460.96, 30575.20, -34483.33, -187500.02, 187500.00, -187500.02, 187500.00, 187500.00, 0.00, 0.00, 0.00
88, 33636.09, 30640.15, -34173.85, -187500.02, 187500.00, -187500.02, 187500.00, 187500.00, 0.01, 0.84, 0.54
89, 33726.70, 30420.52, -33836.54, -187500.02, 187500.00, -187500.02, 187500.00, 187500.00, 0.00, 0.00, 0.00
90, 33605.82, 30323.11, -34050.96, -187500.02, 187500.00, -187500.02, 187500.00, 187500.00, 0.00, 0.00, 0.00
91, 33486.13, 30546.88, -34443.66, -187500.02, 187500.00, -187500.02, 187500.00, 187500.00, 0.00, 0.00, 0.00
92, 33517.02, 30559.04, -34338.76, -187500.02, 187500.00, -187500.02, 187500.00, 187500.00, 0.00, 0.00, 0.00
93, 33586.73, 30332.88, -34018.32, -187500.02, 187500.00, -187500.02, 187500.00, 187500.00, 0.00, 0.00, 0.00
94, 33583.61, 30263.05, -34041.86, -187500.02, 187500.00, -187500.02, 187500.00, 187500.00, 0.00, 0.00, 0.00
95, 33482.02, 30476.94, -34430.11, -187500.02, 187500.00, -187500.02, 187500.00, 187500.00, 0.00, 0.00, 0.00
96, 33490.27, 30565.12, -34426.91, -187500.02, 187500.00, -187500.02, 187500.00, 187500.00, 0.00, 0.00, 0.00
97, 33589.33, 30374.81, -34053.48, -187500.02, 187500.00, -187500.02, 187500.00, 187500.00, 0.00, 0.00, 0.00
98, 33509.60, 30169.47, -34093.56, -187500.02, 187500.00, -187500.02, 187500.00, 187500.00, 0.01, 0.85, 0.53
99, 33489.19, 30449.18, -34357.18, -187500.02, 187500.00, -187500.02, 187500.00, 187500.00, 0.00, 0.00, 0.00
100, 33423.99, 30525.42, -34499.67, -187500.02, 187500.00, -187500.02, 187500.00, 187500.00, 0.00, 0.00, 0.00
101, 33493.39, 30323.45, -34192.38, -187500.02, 187500.00, -187500.02, 187500.00, 187500.00, 0.00, 0.00, 0.00
102, 33431.04, 30072.48, -34139.32, -187500.02, 187500.00, -187500.02, 187500.00, 187500.00, 0.00, 0.00, 0.00
103, 33448.67, 30332.57, -34358.12, -187500.02, 187500.00, -187500.02, 187500.00, 187500.00, 0.00, 0.00, 0.00
104, 33509.02, 30612.70, -34412.77, -187500.02, 187500.00, -187500.02, 187500.00, 187500.00, 0.00, 0.00, 0.00
105, 33699.23, 30581.43, -34026.60, -187500.02, 187500.00, -187500.02, 187500.00, 187500.00, 0.00, 0.00, 0.00
106, 33769.51, 30385.43, -33793.02, -187500.02, 187500.00, -187500.02, 187500.00, 187500.00, 0.00, 0.00, 0.00
107, 33697.27, 30475.60, -34080.29, -187500.02, 187500.00, -187500.02, 187500.00, 187500.00, 0.00, 0.00, 0.00
108, 33678.09, 30769.54, -34270.72, -187500.02, 187500.00, -187500.02, 187500.00, 187500.00, 0.02, 0.84, 0.53
109, 33749.05, 30701.57, -33996.55, -187500.02, 187500.00, -187500.02, 187500.00, 187500.00, 0.00, 0.00, 0.00
110, 33741.25, 30420.97, -33788.57, -187500.02, 187500.00, -187500.02, 187500.00, 187500.00, 0.00, 0.00, 0.00
111, 33672.14, 30438.63, -34008.60, -187500.02, 187500.00, -187500.02, 187500.00, 187500.00, 0.00, 0.00, 0.00
112, 33762.29, 30858.24, -34156.48, -187500.02, 187500.00, -187500.02, 187500.00, 187500.00, 0.00, 0.00, 0.00
113, 33886.59, 30887.29, -33904.71, -187500.02, 187500.00, -187500.02, 187500.00, 187500.00, 0.00, 0.00, 0.00
114, 33994.86, 30684.61, -33576.21, -187500.02, 187500.00, -187500.02, 187500.00, 187500.00, 0.00, 0.00, 0.00
115, 33866.94, 30555.17, -33794.45, -187500.02, 187500.00, -187500.02, 187500.00, 187500.00, 0.00, 0.00, 0.00
116, 33832.09, 30864.90, -34144.32, -187500.02, 187500.00, -187500.02, 187500.00, 187500.00, 0.00, 0.00, 0.00
117, 33870.67, 30885.17, -34031.96, -187500.02, 187500.00, -187500.02, 187500.00, 187500.00, 0.00, 0.00, 0.00
118, 33822.08, 30536.01, -33771.88, -187500.02, 187500.00, -187500.02, 187500.00, 187500.00, 0.02, 0.84, 0.53
119, 33677.13, 30326.96, -33901.63, -187500.02, 187500.00, -187500.02, 187500.00, 187500.00, 0.00, 0.00, 0.00
120, 33597.73, 30580.85, -34293.32, -187500.02, 187500.00, -187500.02, 187500.00, 187500.00, 0.00, 0.00, 0.00
121, 33710.79, 30756.65, -34183.01, -187500.02, 187500.00, -187500.02, 187500.00, 187500.00, 0.00, 0.00, 0.00
122, 33793.55, 30543.28, -33828.52, -187500.02, 187500.00, -187500.02, 187500.00, 187500.00, 0.00, 0.00, 0.00
123, 33761.62, 30359.57, -33808.27, -187500.02, 187500.00, -187500.02, 187500.00, 187500.00, 0.00, 0.00, 0.00
124, 33627.02, 30502.78, -34220.86, -187500.02, 187500.00, -187500.02, 187500.00, 187500.00, 0.00, 0.00, 0.00
125, 33676.34, 30716.12, -34265.51, -187500.02, 187500.00, -187500.02, 187500.00, 187500.00, 0.00, 0.00, 0.00
126, 33789.76, 30566.43, -33898.68, -187500.02, 187500.00, -187500.02, 187500.00, 187500.00, 0.00, 0.00, 0.00
127, 33779.81, 30346.20, -33787.21, -187500.02, 187500.00, -187500.02, 187500.00, 187500.00, 0.00, 0.00, 0.00
128, 33664.30, 30449.62, -34137.68, -187500.02, 187500.00, -187500.02, 187500.00, 187500.00, 0.01, 0.84, 0.53
129, 33645.10, 30681.43, -34307.85, -187500.02, 187500.00, -187500.02, 187500.00, 187500.00, 0.00, 0.00, 0.00
130, 33789.49, 30633.96, -33975.81, -187500.02, 187500.00, -187500.02, 187500.00, 187500.00, 0.00, 0.00, 0.00
131, 33906.19, 30501.77, -33645.21, -187500.02, 187500.00, -187500.02, 187500.00, 187500.00, 0.00, 0.00, 0.00
132, 33761.50, 30516.95, -33982.23, -187500.02, 187500.00, -187500.02, 187500.00, 187500.00, 0.00, 0.00, 0.00
133, 33770.45, 30829.71, -34196.74, -187500.02, 187500.00, -187500.02, 187500.00, 187500.00, 0.00, 0.00, 0.00
134, 33947.47, 30861.30, -33868.61, -187500.02, 187500.00, -187500.02, 187500.00, 187500.00, 0.00, 0.00, 0.00
135, 33954.49, 30593.23, -33631.35, -187500.02, 187500.00, -187500.02, 187500.00, 187500.00, 0.00, 0.00, 0.00
136, 33929.07, 30652.73, -33782.94, -187500.02, 187500.00, -187500.02, 187500.00, 187500.00, 0.00, 0.00, 0.00
137, 33911.71, 30955.00, -34047.25, -187500.02, 187500.00, -187500.02, 187500.00, 187500.00, 0.00, 0.00, 0.00
138, 33968.97, 30942.10, -33898.66, -187500.02, 187500.00, -187500.02, 187500.00, 187500.00, 0.00, 0.83, 0.53
139, 34005.59, 30686.44, -33625.09, -187500.02, 187500.00, -187500.02, 187500.00, 187500.00, 0.00, 0.00, 0.00
140, 33957.46, 30632.06, -33736.16, -187500.02, 187500.00, -187500.02, 187500.00, 187500.00, 0.00, 0.00, 0.00
141, 34018.93, 31036.85, -33940.77, -187500.02, 187500.00, -187500.02, 187500.00, 187500.00, 0.00, 0.00, 0.00
142, 34220.96, 31246.60, -33688.30, -187500.02, 187500.00, -187500.02, 187500.00, 187500.00, 0.00, 0.00, 0.00
143, 34339.52, 31075.94, -33293.05, -187500.02, 187500.00, -187500.02, 187500.00, 187500.00, 0.00, 0.00, 0.00
144, 34269.78, 30901.04, -33368.49, -187500.02, 187500.00, -187500.02, 187500.00, 187500.00, 0.00, 0.00, 0.00
145, 34119.18, 31051.65, -33816.67, -187500.02, 187500.00, -187500.02, 187500.00, 187500.00, 0.00, 0.00, 0.00
146, 34203.04, 31263.16, -33756.95, -187500.02, 187500.00, -187500.02, 187500.00, 187500.00, 0.00, 0.00, 0.00
147, 34224.95, 31017.87, -33443.73, -187500.02, 187500.00, -187500.02, 187500.00, 187500.00, 0.00, 0.00, 0.00
148, 34170.63, 30807.05, -33440.09, -187500.02, 187500.00, -187500.02, 187500.00, 187500.00, 0.01, 0.85, 0.52
149, 34132.50, 31036.11, -33754.08, -187500.02, 187500.00, -187500.02, 187500.00, 187500.00, 0.00, 0.00, 0.00
150, 34236.97, 31322.39, -33747.55, -187500.02, 187500.00, -187500.02, 187500.00, 187500.00, 0.00, 0.00, 0.00
151, 34338.80, 31172.61, -33416.08, -187500.02, 187500.00, -187500.02, 187500.00, 187500.00, 0.00, 0.00, 0.00
152, 34289.88, 30910.43, -33339.53, -187500.02, 187500.00, -187500.02, 187500.00, 187500.00, 0.00, 0.00, 0.00
153, 34181.27, 31020.35, -33666.06, -187500.02, 187500.00, -187500.02, 187500.00, 187500.00, 0.00, 0.00, 0.00
154, 34241.06, 31336.65, -33774.02, -187500.02, 187500.00, -187500.02, 187500.00, 187500.00, 0.00, 0.00, 0.00
155, 34473.86, 31369.69, -33333.09, -187500.02, 187500.00, -187500.02, 187500.00, 187500.00, 0.00, 0.00, 0.00
156, 34499.85, 31132.49, -33095.27, -187500.02, 187500.00, -187500.02, 187500.00, 187500.00, 0.00, 0.00, 0.00
157, 34397.50, 31168.90, -33400.37, -187500.02, 187500.00, -187500.02, 187500.00, 187500.00, 0.00, 0.00, 0.00
158, 34416.14, 31489.94, -33590.60, -187500.02, 187500.00, -187500.02, 187500.00, 187500.00, 0.00, 0.84, 0.52
159, 34515.36, 31474.14, -33356.31, -187500.02, 187500.00, -187500.02, 187500.00, 187500.00, 0.00, 0.00, 0.00
160, 34571.17, 31252.37, -33062.45, -187500.02, 187500.00, -187500.02, 187500.00, 187500.00, 0.00, 0.00, 0.00
161, 34506.58, 31251.20, -33232.50, -187500.02, 187500.00, -187500.02, 187500.00, 187500.00, 0.00, 0.00, 0.00
162, 34464.71, 31540.12, -33514.47, -187500.02, 187500.00, -187500.02, 187500.00, 187500.00, 0.00, 0.00, 0.00
163, 34489.32, 31516.94, -33409.73, -187500.02, 187500.00, -187500.02, 187500.00, 187500.00, 0.00, 0.00, 0.00
164, 34511.83, 31246.15, -33144.68, -187500.02, 187500.00, -187500.02, 187500.00, 187500.00, 0.00, 0.00, 0.00
165, 34455.75, 31159.54, -33245.58, -187500.02, 187500.00, -187500.02, 187500.00, 187500.00, 0.00, 0.00, 0.00
166, 34383.04, 31418.66, -33558.73, -187500.02, 187500.00, -187500.02, 187500.00, 187500.00, 0.00, 0.00, 0.00
167, 34380.80, 31463.92, -33532.06, -187500.02, 187500.00, -187500.02, 187500.00, 187500.00, 0.01, 0.85, 0.53
168, 34525.15, 31325.05, -33146.68, -187500.02, 187500.00, -187500.02, 187500.00, 187500.00, 0.00, 0.00, 0.00
169, 34594.22, 31279.54, -33047.10, -187500.02, 187500.00, -187500.02, 187500.00, 187500.00, 0.00, 0.00, 0.00
170, 34609.08, 31582.75, -33302.18, -187500.02, 187500.00, -187500.02, 187500.00, 187500.00, 0.00, 0.00, 0.00
171, 34683.22, 31775.89, -33293.01, -187500.02, 187500.00, -187500.02, 187500.00, 187500.00, 0.00, 0.00, 0.00
172, 34689.77, 31535.94, -33019.76, -187500.02, 187500.00, -187500.02, 187500.00, 187500.00, 0.00, 0.00, 0.00
173, 34625.60, 31317.88, -32996.67, -187500.02, 187500.00, -187500.02, 187500.00, 187500.00, 0.00, 0.00, 0.00
174, 34577.41, 31521.84, -33293.86, -187500.02, 187500.00, -187500.02, 187500.00, 187500.00, 0.00, 0.00, 0.00
175, 34630.92, 31797.05, -33350.41, -187500.02, 187500.00, -187500.02, 187500.00, 187500.00, 0.00, 0.00, 0.00
176, 34687.65, 31632.08, -33082.73, -187500.02, 187500.00, -187500.02, 187500.00, 187500.00, 0.00, 0.00, 0.00
177, 34668.20, 31375.79, -32989.09, -187500.02, 187500.00, -187500.02, 187500.00, 187500.00, 0.01, 0.85, 0.53
178, 34605.15, 31496.11, -33281.50, -187500.02, 187500.00, -187500.02, 187500.00, 187500.00, 0.00, 0.00, 0.00
179, 34675.51, 31836.35, -33373.70, -187500.02, 187500.00, -187500.02, 187500.00, 187500.00, 0.00, 0.00, 0.00
180, 34677.81, 31675.62, -33137.69, -187500.02, 187500.00, -187500.02, 187500.00, 187500.00, 0.00, 0.00, 0.00
181, 34556.15, 31306.23, -33047.81, -187500.02, 187500.00, -187500.02, 187500.00, 187500.00, 0.00, 0.00, 0.00
182, 34343.25, 31198.81, -33429.45, -187500.02, 187500.00, -187500.02, 187500.00, 187500.00, 0.00, 0.00, 0.00
183, 34392.85, 31564.10, -33627.21, -187500.02, 187500.00, -187500.02, 187500.00, 187500.00, 0.00, 0.00, 0.00
184, 34512.55, 31560.44, -33372.98, -187500.02, 187500.00, -187500.02, 187500.00, 187500.00, 0.00, 0.00, 0.00
185, 34598.15, 31329.63, -33121.15, -187500.02, 187500.00, -187500.02, 187500.00, 187500.00, 0.00, 0.00, 0.00
186, 34431.63, 31207.77, -33351.93, -187500.02, 187500.00, -187500.02, 187500.00, 187500.00, 0.00, 0.00, 0.00
187, 34311.16, 31439.56, -33696.46, -187500.02, 187500.00, -187500.02, 187500.00, 187500.00, 0.01, 0.85, 0.52
188, 34229.28, 31317.88, -33675.76, -187500.02, 187500.00, -187500.02, 187500.00, 187500.00, 0.00, 0.00, 0.00
189, 34421.35, 31246.44, -33248.09, -187500.02, 187500.00, -187500.02, 187500.00, 187500.00, 0.00, 0.00, 0.00
190, 34342.70, 31137.34, -33348.06, -187500.02, 187500.00, -187500.02, 187500.00, 187500.00, 0.00, 0.00, 0.00
191, 34306.02, 31412.65, -33727.11, -187500.02, 187500.00, -187500.02, 187500.00, 187500.00, 0.00, 0.00, 0.00
192, 34394.66, 31522.84, -33643.87, -187500.02, 187500.00, -187500.02, 187500.00, 187500.00, 0.00, 0.00, 0.00
193, 34451.91, 31314.95, -33289.99, -187500.02, 187500.00, -187500.02, 187500.00, 187500.00, 0.00, 0.00, 0.00
194, 34396.52, 31161.75, -33245.22, -187500.02, 187500.00, -187500.02, 187500.00, 187500.00, 0.00, 0.00, 0.00
195, 34333.53, 31421.28, -33541.43, -187500.02, 187500.00, -187500.02, 187500.00, 187500.00, 0.00, 0.00, 0.00
196, 34354.81, 31594.10, -33572.79, -187500.02, 187500.00, -187500.02, 187500.00, 187500.00, 0.00, 0.00, 0.00
197, 34483.78, 31454.42, -33210.42, -187500.02, 187500.00, -187500.02, 187500.00, 187500.00, 0.01, 0.84, 0.52
198, 34430.63, 31190.99, -33137.31, -187500.02, 187500.00, -187500.02, 187500.00, 187500.00, 0.00, 0.00, 0.00
199, 34317.93, 31322.08, -33494.38, -187500.02, 187500.00, -187500.02, 187500.00, 187500.00, 0.00, 0.00, 0.00
200, 34406.33, 31586.43, -33554.97, -187500.02, 187500.00, -187500.02, 187500.00, 187500.00, 0.00, 0.00, 0.00
201, 34557.61, 31494.93, -33166.75, -187500.02, 187500.00, -187500.02, 187500.00, 187500.00, 0.00, 0.00, 0.00
202, 34528.93, 31253.04, -33001.57, -187500.02, 187500.00, -187500.02, 187500.00, 187500.00, 0.00, 0.00, 0.00
203, 34414.78, 31190.43, -33320.08, -187500.02, 187500.00, -187500.02, 187500.00, 187500.00, 0.00, 0.00, 0.00
204, 34297.63, 31266.71, -33580.72, -187500.02, 187500.00, -187500.02, 187500.00, 187500.00, 0.00, 0.00, 0.00
205, 34329.46, 30969.57, -33367.62, -187500.02, 187500.00, -187500.02, 187500.00, 187500.00, 0.00, 0.00, 0.00
206, 34312.99, 30572.04, -33128.79, -187500.02, 187500.00, -187500.02, 187500.00, 187500.00, 0.00, 0.00, 0.00
207, 34139.29, 30412.10, -33426.50, -187500.02, 187500.00, -187500.02, 187500.00, 187500.00, 0.01, 0.85, 0.52
208, 34062.98, 30543.90, -33723.02, -187500.02, 187500.00, -187500.02, 187500.00, 187500.00, 0.00, 0.00, 0.00
209, 34100.89, 30300.72, -33564.96, -187500.02, 187500.00, -187500.02, 187500.00, 187500.00, 0.00, 0.00, 0.00
210, 34173.83, 29990.41, -33271.11, -187500.02, 187500.00, -187500.02, 187500.00, 187500.00, 0.00, 0.00, 0.00
211, 34031.82, 29815.86, -33502.61, -187500.02, 187500.00, -187500.02, 187500.00, 187500.00, 0.00, 0.00, 0.00
212, 34023.76, 30017.27, -33802.96, -187500.02, 187500.00, -187500.02, 187500.00, 187500.00, 0.00, 0.00, 0.00
213, 34134.11, 29970.58, -33616.17, -187500.02, 187500.00, -187500.02, 187500.00, 187500.00, 0.00, 0.00, 0.00
214, 34216.38, 30046.51, -33251.41, -187500.02, 187500.00, -187500.02, 187500.00, 187500.00, 0.00, 0.00, 0.00
215, 34119.69, 30399.78, -33376.23, -187500.02, 187500.00, -187500.02, 187500.00, 187500.00, 0.00, 0.00, 0.00
216, 34079.48, 30720.35, -33669.93, -187500.02, 187500.00, -187500.02, 187500.00, 187500.00, 0.00, 0.00, 0.00
217, 34029.39, 30644.98, -33663.31, -187500.02, 187500.00, -187500.02, 187500.00, 187500.00, 0.03, 0.85, 0.50
218, 34091.06, 30234.18, -33360.22, -187500.02, 187500.00, -187500.02, 187500.00, 187500.00, 0.00, 0.00, 0.00
219, 34058.04, 29961.98, -33389.73, -187500.02, 187500.00, -187500.02, 187500.00, 187500.00, 0.00, 0.00, 0.00
220, 33858.46, 30104.49, -33793.40, -187500.02, 187500.00, -187500.02, 187500.00, 187500.00, 0.00, 0.00, 0.00
221, 33745.84, 30077.78, -33961.29, -187500.02, 187500.00, -187500.02, 187500.00, 187500.00, 0.00, 0.00, 0.00
222, 33886.00, 29780.03, -33589.04, -187500.02, 187500.00, -187500.02, 187500.00, 187500.00, 0.00, 0.00, 0.00
223, 33962.98, 29589.48, -33368.23, -187500.02, 187500.00, -187500.02, 187500.00, 187500.00, 0.00, 0.00, 0.00
224, 33854.91, 29783.99, -33717.14, -187500.02, 187500.00, -187500.02, 187500.00, 187500.00, 0.00, 0.00, 0.00
225, 33798.65, 29936.38, -33911.11, -187500.02, 187500.00, -187500.02, 187500.00, 187500.00, 0.00, 0.00, 0.00
226, 33786.49, 29596.03, -33696.13, -187500.02, 187500.00, -187500.02, 187500.00, 187500.00, 0.00, 0.00, 0.00
227, 33800.22, 29379.62, -33463.33, -187500.02, 187500.00, -187500.02, 187500.00, 187500.00, 0.02, 0.84, 0.52
228, 33621.18, 29575.85, -33773.80, -187500.02, 187500.00, -187500.02, 187500.00, 187500.00, 0.00, 0.00, 0.00
229, 33430.77, 29858.09, -34153.20, -187500.02, 187500.00, -187500.02, 187500.00, 187500.00, 0.00, 0.00, 0.00
230, 33481.84, 29627.77, -33916.25, -187500.02, 187500.00, -187500.02, 187500.00, 187500.00, 0.00, 0.00, 0.00
231, 33542.12, 29311.05, -33663.76, -187500.02, 187500.00, -187500.02, 187500.00, 187500.00, 0.00, 0.00, 0.00
232, 33406.22, 29389.59, -33925.50, -187500.02, 187500.00, -187500.02, 187500.00, 187500.00, 0.00, 0.00, 0.00
233, 33340.89, 29843.67, -34143.09, -187500.02, 187500.00, -187500.02, 187500.00, 187500.00, 0.00, 0.00, 0.00
234, 33378.84, 29695.50, -33913.32, -187500.02, 187500.00, -187500.02, 187500.00, 187500.00, 0.00, 0.00, 0.00
235, 33305.24, 29205.12, -33726.66, -187500.02, 187500.00, -187500.02, 187500.00, 187500.00, 0.00, 0.00, 0.00
236, 33201.64, 29192.03, -33896.84, -187500.02, 187500.00, -187500.02, 187500.00, 187500.00, 0.00, 0.00, 0.00
237, 33123.81, 29681.98, -34239.54, -187500.02, 187500.00, -187500.02, 187500.00, 187500.00, 0.01, 0.84, 0.53
238, 33236.95, 29789.20, -34094.41, -187500.02, 187500.00, -187500.02, 187500.00, 187500.00, 0.00, 0.00, 0.00
239, 33388.14, 29586.47, -33676.81, -187500.02, 187500.00, -187500.02, 187500.00, 187500.00, 0.00, 0.00, 0.00
240, 33215.07, 29468.25, -33780.73, -187500.02, 187500.00, -187500.02, 187500.00, 187500.00, 0.00, 0.00, 0.00
241, 33070.70, 29844.07, -34151.96, -187500.02, 187500.00, -187500.02, 187500.00, 187500.00, 0.00, 0.00, 0.00
242, 33023.98, 29924.16, -34209.32, -187500.02, 187500.00, -187500.02, 187500.00, 187500.00, 0.00, 0.00, 0.00
243, 33134.40, 29549.61, -33847.54, -187500.02, 187500.00, -187500.02, 187500.00, 187500.00, 0.00, 0.00, 0.00
244, 32994.39, 29252.93, -33905.07, -187500.02, 187500.00, -187500.02, 187500.00, 187500.00, 0.00, 0.00, 0.00
245, 32887.57, 29678.76, -34284.40, -187500.02, 187500.00, -187500.02, 187500.00, 187500.00, 0.00, 0.00, 0.00
246, 32882.28, 29940.74, -34355.39, -187500.02, 187500.00, -187500.02, 187500.00, 187500.00, 0.00, 0.00, 0.00
247, 33041.06, 29648.38, -33946.44, -187500.02, 187500.00, -187500.02, 187500.00, 187500.00, 0.01, 0.84, 0.53
248, 33040.30, 29366.30, -33802.99, -187500.02, 187500.00, -187500.02, 187500.00, 187500.00, 0.00, 0.00, 0.00
249, 32974.52, 29705.42, -34103.11, -187500.02, 187500.00, -187500.02, 187500.00, 187500.00, 0.00, 0.00, 0.00
250, 32959.68, 30041.53, -34275.04, -187500.02, 187500.00, -187500.02, 187500.00, 187500.00, 0.00, 0.00, 0.00
251, 33100.77, 29784.71, -33948.79, -187500.02, 187500.00, -187500.02, 187500.00, 187500.00, 0.00, 0.00, 0.00
252, 33039.05, 29420.46, -33801.92, -187500.02, 187500.00, -187500.02, 187500.00, 187500.00, 0.00, 0.00, 0.00
253, 32852.86, 29626.59, -34170.47, -187500.02, 187500.00, -187500.02, 187500.00, 187500.00, 0.00, 0.00, 0.00
254, 32829.82, 30106.66, -34404.95, -187500.02, 187500.00, -187500.02, 187500.00, 187500.00, 0.00, 0.00, 0.00
255, 32888.16, 29902.65, -34173.04, -187500.02, 187500.00, -187500.02, 187500.00, 187500.00, 0.00, 0.00, 0.00
0, 32952.04, 29568.59, -33854.02, -187500.02, 187500.00, -187500.02, 187500.00, 187500.00, 0.01, 0.84, 0.53
1, 32771.12, 29588.75, -34155.57, -187500.02, 187500.00, -187500.02, 187500.00, 187500.00, 0.00, 0.00, 0.00
2, 32689.54, 30009.09, -34519.81, -187500.02, 187500.00, -187500.02, 187500.00, 187500.00, 0.00, 0.00, 0.00
3, 32785.38, 29881.76, -34349.73, -187500.02, 187500.00, -187500.02, 187500.00, 187500.00, 0.00, 0.00, 0.00
4, 32796.42, 29400.95, -34079.30, -187500.02, 187500.00, -187500.02, 187500.00, 187500.00, 0.00, 0.00, 0.00
5, 32724.83, 29367.04, -34207.51, -187500.02, 187500.00, -187500.02, 187500.00, 187500.00, 0.00, 0.00, 0.00
6, 32697.99, 29863.36, -34498.55, -187500.02, 187500.00, -187500.02, 187500.00, 187500.00, 0.00, 0.00, 0.00
7, 32813.54, 29902.36, -34360.82, -187500.02, 187500.00, -187500.02, 187500.00, 187500.00, 0.00, 0.00, 0.00
8, 32971.19, 29564.90, -33931.71, -187500.02, 187500.00, -187500.02, 187500.00, 187500.00, 0.00, 0.00, 0.00
9, 32786.34, 29367.29, -34022.37, -187500.02, 187500.00, -187500.02, 187500.00, 187500.00, 0.00, 0.00, 0.00
10, 32674.20, 29777.95, -34417.33, -187500.02, 187500.00, -187500.02, 187500.00, 187500.00, 0.01, 0.84, 0.53
11, 32783.21, 29963.70, -34347.25, -187500.02, 187500.00, -187500.02, 187500.00, 187500.00, 0.00, 0.00, 0.00
12, 32894.41, 29577.71, -33971.99, -187500.02, 187500.00, -187500.02, 187500.00, 187500.00, 0.00, 0.00, 0.00
13, 32795.75, 29308.41, -33967.86, -187500.02, 187500.00, -187500.02, 187500.00, 187500.00, 0.00, 0.00, 0.00
14, 32689.22, 29671.27, -34309.57, -187500.02, 187500.00, -187500.02, 187500.00, 187500.00, 0.00, 0.00, 0.00
15, 32638.53, 29845.21, -34451.79, -187500.02, 187500.00, -187500.02, 187500.00, 187500.00, 0.00, 0.00, 0.00
16, 32738.82, 29461.05, -34110.08, -187500.02, 187500.00, -187500.02, 187500.00, 187500.00, 0.00, 0.00, 0.00
17, 32712.80, 29140.66, -33955.34, -187500.02, 187500.00, -187500.02, 187500.00, 187500.00, 0.00, 0.00, 0.00
18, 32623.67, 29426.83, -34244.93, -187500.02, 187500.00, -187500.02, 187500.00, 187500.00, 0.00, 0.00, 0.00
19, 32632.83, 29771.72, -34402.02, -187500.02, 187500.00, -187500.02, 187500.00, 187500.00, 0.00, 0.00, 0.00
20, 32654.89, 29444.89, -34178.92, -187500.02, 187500.00, -187500.02, 187500.00, 187500.00, 0.01, 0.84, 0.53
21, 32636.54, 29123.61, -33962.56, -187500.02, 187500.00, -187500.02, 187500.00, 187500.00, 0.00, 0.00, 0.00
22, 32472.08, 29263.24, -34230.71, -187500.02, 187500.00, -187500.02, 187500.00, 187500.00, 0.00, 0.00, 0.00
23, 32403.75, 29624.15, -34524.41, -187500.02, 187500.00, -187500.02, 187500.00, 187500.00, 0.00, 0.00, 0.00
24, 32523.44, 29454.48, -34267.41, -187500.02, 187500.00, -187500.02, 187500.00, 187500.00, 0.00, 0.00, 0.00
25, 32526.99, 29074.79, -33985.78, -187500.02, 187500.00, -187500.02, 187500.00, 187500.00, 0.00, 0.00, 0.00
26, 32425.76, 29141.51, -34168.77, -187500.02, 187500.00, -187500.02, 187500.00, 187500.00, 0.00, 0.00, 0.00
27, 32356.99, 29594.98, -34503.74, -187500.02, 187500.00, -187500.02, 187500.00, 187500.00, 0.00, 0.00, 0.00
28, 32378.29, 29509.51, -34436.01, -187500.02, 187500.00, -187500.02, 187500.00, 187500.00, 0.00, 0.00, 0.00
29, 32443.20, 29135.23, -34114.71, -187500.02, 187500.00, -187500.02, 187500.00, 187500.00, 0.00, 0.00, 0.00
30, 32296.39, 29021.15, -34254.36, -187500.02, 187500.00, -187500.02, 187500.00, 187500.00, 0.01, 0.84, 0.53
31, 32150.53, 29440.91, -34671.60, -187500.02, 187500.00, -187500.02, 187500.00, 187500.00, 0.00, 0.00, 0.00
32, 32262.78, 29520.57, -34573.88, -187500.02, 187500.00, -187500.02, 187500.00, 187500.00, 0.00, 0.00, 0.00
33, 32436.87, 29157.71, -34104.18, -187500.02, 187500.00, -187500.02, 187500.00, 187500.00, 0.00, 0.00, 0.00
34, 32264.03, 28905.68, -34209.30, -187500.02, 187500.00, -187500.02, 187500.00, 187500.00, 0.00, 0.00, 0.00
35, 32150.86, 29292.61, -34620.79, -187500.02, 187500.00, -187500.02, 187500.00, 187500.00, 0.00, 0.00, 0.00
36, 32162.77, 29403.29, -34692.59, -187500.02, 187500.00, -187500.02, 187500.00, 187500.00, 0.00, 0.00, 0.00
37, 32222.86, 28970.03, -34404.72, -187500.02, 187500.00, -187500.02, 187500.00, 187500.00, 0.00, 0.00, 0.00
38, 32176.90, 28709.96, -34347.34, -187500.02, 187500.00, -187500.02, 187500.00, 187500.00, 0.00, 0.00, 0.00
39, 32083.13, 29090.88, -34669.97, -187500.02, 187500.00, -187500.02, 187500.00, 187500.00, 0.00, 0.00, 0.00
40, 32112.82, 29417.46, -34798.83, -187500.02, 187500.00, -187500.02, 187500.00, 187500.00, 0.01, 0.85, 0.53
41, 32298.45, 29220.79, -34408.07, -187500.02, 187500.00, -187500.02, 187500.00, 187500.00, 0.00, 0.00, 0.00
42, 32279.47, 28953.02, -34235.65, -187500.02, 187500.00, -187500.02, 187500.00, 187500.00, 0.00, 0.00, 0.00
43, 32156.94, 29185.90, -34550.21, -187500.02, 187500.00, -187500.02, 187500.00, 187500.00, 0.00, 0.00, 0.00
44, 32256.67, 29680.30, -34659.20, -187500.02, 187500.00, -187500.02, 187500.00, 187500.00, 0.00, 0.00, 0.00
45, 32420.09, 29517.91, -34336.10, -187500.02, 187500.00, -187500.02, 187500.00, 187500.00, 0.00, 0.00, 0.00
46, 32480.19, 29222.98, -34059.74, -187500.02, 187500.00, -187500.02, 187500.00, 187500.00, 0.00, 0.00, 0.00
47, 32334.90, 29296.18, -34320.66, -187500.02, 187500.00, -187500.02, 187500.00, 187500.00, 0.00, 0.00, 0.00
48, 32324.38, 29702.25, -34609.21, -187500.02, 187500.00, -187500.02, 187500.00, 187500.00, 0.00, 0.00, 0.00
49, 32456.54, 29639.48, -34366.16, -187500.02, 187500.00, -187500.02, 187500.00, 187500.00, 0.00, 0.00, 0.00
50, 32542.02, 29372.98, -34034.00, -187500.02, 187500.00, -187500.02, 187500.00, 187500.00, 0.01, 0.85, 0.53
51, 32343.80, 29384.63, -34274.32, -187500.02, 187500.00, -187500.02, 187500.00, 187500.00, 0.00, 0.00, 0.00
52, 32247.80, 29806.34, -34658.41, -187500.02, 187500.00, -187500.02, 187500.00, 187500.00, 0.00, 0.00, 0.00
53, 32439.20, 29876.82, -34424.19, -187500.02, 187500.00, -187500.02, 187500.00, 187500.00, 0.00, 0.00, 0.00
54, 32538.19, 29554.30, -34069.89, -187500.02, 187500.00, -187500.02, 187500.00, 187500.00, 0.00, 0.00, 0.00
55, 32463.18, 29511.30, -34160.39, -187500.02, 187500.00, -187500.02, 187500.00, 187500.00, 0.00, 0.00, 0.00
56, 32375.56, 29944.83, -34513.89, -187500.02, 187500.00, -187500.02, 187500.00, 187500.00, 0.00, 0.00, 0.00
57, 32297.69, 29924.49, -34629.55, -187500.02, 187500.00, -187500.02, 187500.00, 187500.00, 0.00, 0.00, 0.00
58, 32357.86, 29559.49, -34335.56, -187500.02, 187500.00, -187500.02, 187500.00, 187500.00, 0.00, 0.00, 0.00
59, 32201.62, 29290.26, -34396.27, -187500.02, 187500.00, -187500.02, 187500.00, 187500.00, 0.00, 0.00, 0.00
