%OpenBCI Raw EEG Data
%
%Sample Rate = 250.0 Hz
%First Column = SampleIndex
%Other Columns = EEG data in microvolts followed by Accel Data (in G) interleaved with Aux Data
0, 3113.44, 5822.76, -9920.53, -5106.99, -2075.02, 30327.96, -2374.72, -22894.98, 0.06, 0.96, 0.19
1, 3020.70, 5736.93, -9843.04, -5140.81, -2103.23, 31289.49, -2237.05, -22974.87, 0.00, 0.00, 0.00
2, 2943.55, 5659.93, -9931.46, -5240.75, -2203.68, 31725.82, -2321.99, -23065.30, 0.00, 0.00, 0.00
3, 3048.80, 5760.31, -10014.48, -5218.95, -2172.97, 30698.18, -2499.17, -22984.28, 0.00, 0.00, 0.00
4, 3121.73, 5825.71, -9926.21, -5133.41, -2084.12, 30256.68, -2413.70, -22899.67, 0.00, 0.00, 0.00
5, 3040.31, 5748.02, -9823.75, -5149.62, -2102.20, 31112.53, -2263.23, -22966.33, 0.00, 0.00, 0.00
6, 2938.87, 5656.27, -9883.02, -5247.47, -2199.77, 31773.81, -2297.09, -23070.93, 0.00, 0.00, 0.00
7, 3012.28, 5725.76, -9993.55, -5248.28, -2201.53, 30900.53, -2488.53, -23014.34, 0.06, 0.98, 0.20
8, 3102.85, 5811.43, -9922.30, -5151.94, -2109.49, 30205.28, -2446.42, -22907.68, 0.00, 0.00, 0.00
9, 3048.11, 5759.62, -9809.11, -5139.38, -2097.06, 30911.05, -2280.21, -22943.30, 0.00, 0.00, 0.00
10, 2941.02, 5657.76, -9834.19, -5226.04, -2181.91, 31750.85, -2265.22, -23055.42, 0.00, 0.00, 0.00
11, 2995.09, 5705.80, -9946.91, -5247.14, -2205.69, 31119.42, -2449.64, -23026.61, 0.00, 0.00, 0.00
12, 3098.26, 5804.03, -9912.69, -5159.56, -2126.01, 30223.16, -2466.11, -22915.03, 0.00, 0.00, 0.00
13, 3082.46, 5787.96, -9780.54, -5117.97, -2089.51, 30740.64, -2292.42, -22921.49, 0.00, 0.00, 0.00
14, 2970.37, 5690.75, -9767.96, -5195.01, -2164.32, 31691.33, -2239.71, -23036.47, 0.00, 0.00, 0.00
15, 2977.05, 5694.40, -9885.64, -5250.54, -2211.46, 31337.84, -2419.84, -23050.10, 0.00, 0.00, 0.00
16, 3095.18, 5797.51, -9887.03, -5178.18, -2133.52, 30291.55, -2493.92, -22942.86, 0.06, 0.97, 0.19
17, 3091.11, 5801.17, -9751.15, -5115.02, -2080.84, 30578.68, -2326.57, -22918.16, 0.00, 0.00, 0.00
18, 2973.03, 5693.86, -9709.24, -5180.35, -2150.71, 31586.66, -2239.11, -23029.76, 0.00, 0.00, 0.00
19, 2951.06, 5674.73, -9818.27, -5251.56, -2220.24, 31520.41, -2385.85, -23069.06, 0.00, 0.00, 0.00
20, 3071.24, 5783.96, -9847.42, -5186.32, -2159.20, 30397.90, -2498.59, -22957.45, 0.00, 0.00, 0.00
21, 3102.67, 5810.98, -9719.30, -5109.81, -2085.84, 30424.77, -2347.89, -22910.74, 0.00, 0.00, 0.00
22, 3001.15, 5722.00, -9651.55, -5155.36, -2128.82, 31424.16, -2228.42, -23000.95, 0.00, 0.00, 0.00
23, 2955.59, 5674.08, -9735.35, -5237.04, -2199.21, 31657.76, -2331.15, -23060.07, 0.00, 0.00, 0.00
24, 3070.26, 5776.92, -9787.18, -5196.31, -2163.96, 30554.88, -2480.93, -22967.87, 0.00, 0.00, 0.00
25, 3122.40, 5827.68, -9666.75, -5113.14, -2083.00, 30310.78, -2359.90, -22893.86, 0.00, 0.00, 0.00
26, 3028.88, 5741.43, -9563.10, -5142.33, -2111.44, 31253.97, -2214.79, -22968.85, 0.06, 0.98, 0.19
27, 2931.50, 5645.63, -9639.64, -5255.34, -2216.29, 31738.54, -2297.67, -23076.46, 0.00, 0.00, 0.00
28, 3039.01, 5746.37, -9722.03, -5233.19, -2188.59, 30728.22, -2479.86, -22998.18, 0.00, 0.00, 0.00
29, 3121.85, 5826.34, -9616.44, -5139.74, -2089.80, 30226.55, -2390.72, -22894.29, 0.00, 0.00, 0.00
30, 3047.86, 5762.48, -9490.97, -5144.48, -2090.33, 31052.52, -2228.69, -22949.23, 0.00, 0.00, 0.00
31, 2946.47, 5665.83, -9534.00, -5234.26, -2182.92, 31762.61, -2254.84, -23060.25, 0.00, 0.00, 0.00
32, 3017.89, 5729.15, -9642.97, -5241.60, -2198.18, 30944.49, -2454.13, -23018.03, 0.00, 0.00, 0.00
33, 3115.23, 5821.13, -9580.00, -5150.22, -2109.87, 30196.63, -2425.70, -22912.53, 0.00, 0.00, 0.00
34, 3068.63, 5781.01, -9456.82, -5130.26, -2090.92, 30864.94, -2253.97, -22938.97, 0.00, 0.00, 0.00
35, 2953.54, 5674.62, -9472.36, -5218.22, -2177.89, 31739.30, -2232.87, -23052.27, 0.00, 0.00, 0.00
36, 2998.96, 5713.75, -9590.84, -5246.71, -2203.84, 31176.10, -2416.51, -23031.82, 0.06, 0.97, 0.19
37, 3123.79, 5826.90, -9558.25, -5147.83, -2109.11, 30237.73, -2431.40, -22906.04, 0.00, 0.00, 0.00
38, 3093.53, 5796.21, -9435.52, -5117.34, -2078.91, 30704.99, -2263.16, -22919.41, 0.00, 0.00, 0.00
39, 2956.24, 5672.69, -9435.07, -5208.65, -2167.36, 31669.87, -2210.52, -23046.08, 0.00, 0.00, 0.00
40, 2968.96, 5685.43, -9557.07, -5254.31, -2213.05, 31376.84, -2377.82, -23047.40, 0.00, 0.00, 0.00
41, 3095.92, 5802.87, -9572.00, -5171.39, -2129.20, 30308.23, -2446.00, -22924.44, 0.00, 0.00, 0.00
42, 3105.01, 5810.34, -9449.83, -5111.82, -2070.35, 30536.39, -2285.09, -22904.75, 0.00, 0.00, 0.00
43, 2991.65, 5708.88, -9406.15, -5171.17, -2125.78, 31545.26, -2191.19, -23003.25, 0.00, 0.00, 0.00
44, 2964.02, 5681.32, -9524.06, -5242.51, -2189.51, 31555.61, -2330.95, -23048.25, 0.00, 0.00, 0.00
45, 3080.29, 5789.12, -9578.26, -5182.52, -2136.58, 30435.43, -2457.78, -22941.58, 0.00, 0.00, 0.00
46, 3106.45, 5812.26, -9477.45, -5115.40, -2061.99, 30410.80, -2315.89, -22893.01, 0.06, 0.97, 0.20
47, 3000.88, 5715.07, -9419.52, -5161.08, -2109.42, 31400.94, -2191.41, -22984.14, 0.00, 0.00, 0.00
48, 2939.32, 5657.09, -9524.84, -5252.64, -2202.63, 31682.90, -2299.41, -23063.18, 0.00, 0.00, 0.00
49, 3048.73, 5757.65, -9609.89, -5213.41, -2163.49, 30594.11, -2461.80, -22966.66, 0.00, 0.00, 0.00
50, 3109.04, 5815.63, -9510.80, -5122.48, -2075.74, 30294.86, -2348.21, -22882.75, 0.00, 0.00, 0.00
51, 3015.16, 5728.89, -9429.64, -5152.66, -2104.46, 31209.58, -2209.72, -22965.10, 0.00, 0.00, 0.00
52, 2923.92, 5641.07, -9516.37, -5250.09, -2198.50, 31754.70, -2269.95, -23065.19, 0.00, 0.00, 0.00
53, 3017.28, 5726.81, -9631.34, -5232.30, -2185.08, 30792.57, -2454.60, -22991.38, 0.00, 0.00, 0.00
54, 3104.41, 5808.08, -9561.34, -5137.12, -2093.60, 30226.15, -2386.34, -22893.73, 0.00, 0.00, 0.00
55, 3043.88, 5756.11, -9452.69, -5132.94, -2091.01, 31014.68, -2224.27, -22938.57, 0.00, 0.00, 0.00
56, 2943.26, 5660.49, -9498.44, -5223.96, -2179.94, 31767.26, -2238.19, -23047.67, 0.06, 0.96, 0.19
57, 3012.10, 5722.67, -9615.27, -5231.63, -2194.27, 31019.59, -2434.44, -23009.38, 0.00, 0.00, 0.00
58, 3112.46, 5819.59, -9573.12, -5136.23, -2104.28, 30224.68, -2418.39, -22901.60, 0.00, 0.00, 0.00
59, 3077.86, 5781.35, -9455.95, -5114.46, -2081.17, 30840.31, -2246.71, -22926.76, 0.00, 0.00, 0.00
60, 2966.88, 5685.28, -9460.24, -5190.99, -2163.34, 31739.16, -2209.34, -23035.01, 0.00, 0.00, 0.00
61, 2992.85, 5712.73, -9586.95, -5227.74, -2203.39, 31237.48, -2397.63, -23029.31, 0.00, 0.00, 0.00
62, 3102.44, 5812.73, -9580.78, -5144.50, -2123.44, 30255.01, -2439.72, -22915.75, 0.00, 0.00, 0.00
63, 3082.75, 5797.10, -9468.47, -5104.56, -2089.06, 30663.71, -2274.96, -22915.52, 0.00, 0.00, 0.00
64, 2961.92, 5688.32, -9455.70, -5183.66, -2156.32, 31649.91, -2205.56, -23029.58, 0.00, 0.00, 0.00
65, 2960.06, 5681.92, -9583.47, -5249.11, -2210.95, 31424.38, -2370.92, -23057.54, 0.00, 0.00, 0.00
66, 3088.70, 5799.45, -9606.22, -5172.57, -2143.64, 30332.57, -2459.50, -22937.52, 0.06, 0.97, 0.19
67, 3104.30, 5815.45, -9477.77, -5108.67, -2077.86, 30506.76, -2298.45, -22901.02, 0.00, 0.00, 0.00
68, 2979.89, 5699.78, -9432.70, -5180.66, -2146.24, 31519.71, -2205.13, -23017.07, 0.00, 0.00, 0.00
69, 2939.66, 5660.71, -9551.21, -5265.42, -2228.07, 31585.16, -2341.57, -23080.52, 0.00, 0.00, 0.00
70, 3062.39, 5775.91, -9607.18, -5212.23, -2174.47, 30457.40, -2472.24, -22972.21, 0.00, 0.00, 0.00
71, 3102.80, 5808.75, -9496.41, -5134.84, -2093.53, 30370.70, -2333.05, -22901.98, 0.00, 0.00, 0.00
72, 3003.05, 5716.01, -9418.15, -5168.82, -2130.93, 31355.88, -2205.92, -22992.39, 0.00, 0.00, 0.00
73, 2942.81, 5663.95, -9496.41, -5249.37, -2217.49, 31716.92, -2294.43, -23068.21, 0.00, 0.00, 0.00
74, 3050.57, 5765.88, -9584.74, -5217.79, -2189.64, 30649.83, -2463.79, -22982.11, 0.00, 0.00, 0.00
75, 3116.37, 5826.72, -9487.87, -5125.41, -2100.66, 30282.88, -2360.10, -22897.73, 0.00, 0.00, 0.00
76, 3028.17, 5742.52, -9396.81, -5147.18, -2124.69, 31176.03, -2213.56, -22968.56, 0.06, 0.97, 0.19
77, 2937.13, 5659.33, -9466.72, -5241.01, -2217.76, 31766.72, -2261.59, -23073.06, 0.00, 0.00, 0.00
78, 3020.79, 5740.67, -9578.62, -5234.24, -2209.72, 30841.79, -2448.52, -23006.18, 0.00, 0.00, 0.00
79, 3125.56, 5828.82, -9498.75, -5128.92, -2104.06, 30228.30, -2375.45, -22885.26, 0.00, 0.00, 0.00
80, 3064.85, 5772.54, -9381.61, -5125.95, -2097.71, 30997.09, -2209.13, -22931.30, 0.00, 0.00, 0.00
81, 2948.73, 5671.80, -9419.05, -5223.85, -2182.76, 31789.34, -2214.32, -23046.01, 0.00, 0.00, 0.00
82, 3001.97, 5716.26, -9547.01, -5251.85, -2203.35, 31077.89, -2409.83, -23019.66, 0.00, 0.00, 0.00
83, 3101.89, 5805.55, -9505.57, -5165.49, -2126.52, 30227.09, -2413.21, -22914.31, 0.00, 0.00, 0.00
84, 3064.71, 5775.53, -9372.18, -5136.79, -2103.59, 30798.85, -2246.06, -22930.68, 0.00, 0.00, 0.00
85, 2949.63, 5667.46, -9374.43, -5222.35, -2188.93, 31725.04, -2205.89, -23051.38, 0.00, 0.00, 0.00
86, 2977.90, 5694.60, -9499.02, -5256.66, -2225.92, 31274.76, -2384.15, -23046.01, 0.06, 0.97, 0.19
87, 3101.93, 5810.34, -9487.64, -5165.44, -2130.01, 30262.85, -2425.52, -22919.79, 0.00, 0.00, 0.00
88, 3086.53, 5794.22, -9365.34, -5125.30, -2094.60, 30624.19, -2264.92, -22915.70, 0.00, 0.00, 0.00
89, 2965.43, 5681.50, -9334.85, -5198.93, -2171.11, 31624.52, -2190.94, -23027.62, 0.00, 0.00, 0.00
90, 2957.38, 5676.72, -9451.59, -5260.75, -2230.35, 31477.60, -2341.99, -23051.44, 0.00, 0.00, 0.00
91, 3091.49, 5803.61, -9479.17, -5184.35, -2150.57, 30371.88, -2432.56, -22923.99, 0.00, 0.00, 0.00
92, 3105.04, 5812.30, -9359.10, -5126.75, -2078.89, 30486.17, -2278.43, -22888.88, 0.00, 0.00, 0.00
93, 2992.76, 5709.66, -9300.25, -5186.39, -2133.34, 31497.83, -2171.90, -22997.60, 0.00, 0.00, 0.00
94, 2949.83, 5668.40, -9408.30, -5264.33, -2215.75, 31637.84, -2296.91, -23054.53, 0.00, 0.00, 0.00
95, 3064.45, 5772.18, -9474.21, -5212.78, -2171.16, 30523.12, -2437.14, -22952.20, 0.06, 0.97, 0.19
96, 3101.28, 5805.66, -9365.81, -5141.84, -2099.59, 30362.79, -2315.10, -22894.33, 0.00, 0.00, 0.00
97, 3008.39, 5722.47, -9275.53, -5174.36, -2132.04, 31324.81, -2180.55, -22978.42, 0.00, 0.00, 0.00
98, 2928.21, 5646.88, -9362.36, -5268.10, -2226.19, 31738.98, -2269.42, -23073.41, 0.00, 0.00, 0.00
99, 3034.32, 5745.94, -9465.18, -5236.16, -2199.72, 30693.50, -2444.25, -22990.18, 0.00, 0.00, 0.00
100, 3117.98, 5822.54, -9372.51, -5133.01, -2103.21, 30274.74, -2341.81, -22892.97, 0.00, 0.00, 0.00
101, 3041.04, 5750.57, -9270.90, -5143.05, -2115.73, 31151.98, -2190.40, -22954.88, 0.00, 0.00, 0.00
102, 2955.66, 5670.95, -9326.42, -5230.35, -2198.45, 31804.01, -2215.77, -23050.10, 0.00, 0.00, 0.00
103, 3029.40, 5746.14, -9442.36, -5234.94, -2196.89, 30925.11, -2404.67, -22995.76, 0.00, 0.00, 0.00
104, 3118.16, 5827.57, -9380.42, -5143.74, -2101.33, 30243.27, -2360.63, -22893.28, 0.00, 0.00, 0.00
105, 3068.63, 5777.28, -9263.21, -5133.39, -2087.59, 30959.02, -2196.13, -22936.33, 0.06, 0.97, 0.19
106, 2958.99, 5672.05, -9289.94, -5227.31, -2183.23, 31781.79, -2189.78, -23051.11, 0.00, 0.00, 0.00
107, 3007.29, 5723.25, -9413.71, -5248.23, -2210.72, 31131.71, -2381.33, -23016.89, 0.00, 0.00, 0.00
108, 3116.19, 5822.58, -9388.65, -5156.68, -2123.21, 30238.78, -2387.46, -22903.09, 0.00, 0.00, 0.00
109, 3086.02, 5793.75, -9260.37, -5125.30, -2087.16, 30764.45, -2214.83, -22912.30, 0.00, 0.00, 0.00
110, 2963.55, 5681.21, -9254.09, -5211.53, -2172.28, 31714.84, -2167.74, -23028.49, 0.00, 0.00, 0.00
111, 2995.33, 5704.48, -9374.46, -5250.42, -2215.39, 31338.33, -2338.55, -23025.13, 0.00, 0.00, 0.00
112, 3115.45, 5820.15, -9380.29, -5165.80, -2127.68, 30297.74, -2392.40, -22904.41, 0.00, 0.00, 0.00
113, 3093.17, 5803.61, -9258.96, -5127.51, -2085.15, 30604.12, -2235.87, -22898.94, 0.00, 0.00, 0.00
114, 2972.36, 5692.74, -9225.21, -5204.65, -2157.23, 31612.74, -2158.06, -23013.73, 0.00, 0.00, 0.00
115, 2953.51, 5670.88, -9348.04, -5277.38, -2220.22, 31526.64, -2311.19, -23055.13, 0.06, 0.97, 0.19
116, 3080.58, 5783.36, -9399.11, -5213.07, -2154.75, 30401.14, -2419.91, -22944.60, 0.00, 0.00, 0.00
117, 3107.92, 5809.20, -9276.17, -5140.97, -2093.91, 30457.40, -2271.03, -22893.68, 0.00, 0.00, 0.00
118, 2995.09, 5708.28, -9204.38, -5190.61, -2146.75, 31464.66, -2156.52, -22989.93, 0.00, 0.00, 0.00
119, 2940.84, 5658.34, -9311.27, -5275.91, -2226.59, 31673.05, -2269.06, -23059.85, 0.00, 0.00, 0.00
120, 3054.39, 5764.45, -9392.99, -5229.73, -2181.73, 30566.84, -2420.34, -22960.00, 0.00, 0.00, 0.00
121, 3111.21, 5817.96, -9280.42, -5136.74, -2090.58, 30349.87, -2290.38, -22880.83, 0.00, 0.00, 0.00
122, 3014.89, 5729.40, -9188.47, -5169.73, -2126.90, 31297.87, -2158.35, -22968.50, 0.00, 0.00, 0.00
123, 2936.24, 5654.92, -9269.69, -5262.29, -2220.02, 31769.54, -2230.86, -23058.42, 0.00, 0.00, 0.00
124, 3037.33, 5746.32, -9375.86, -5244.03, -2192.57, 30761.90, -2404.40, -22974.89, 0.00, 0.00, 0.00
125, 3110.00, 5811.86, -9300.76, -5160.59, -2096.30, 30272.22, -2320.54, -22887.78, 0.06, 0.97, 0.19
126, 3032.37, 5746.37, -9192.58, -5161.35, -2108.98, 31107.95, -2166.06, -22952.76, 0.00, 0.00, 0.00
127, 2938.34, 5656.98, -9235.16, -5251.14, -2202.74, 31807.49, -2191.61, -23056.40, 0.00, 0.00, 0.00
128, 3011.52, 5722.11, -9358.61, -5258.94, -2207.93, 30976.21, -2385.15, -23002.34, 0.00, 0.00, 0.00
129, 3116.57, 5823.39, -9299.04, -5160.30, -2110.25, 30237.89, -2347.51, -22889.35, 0.00, 0.00, 0.00
130, 3063.42, 5776.27, -9175.41, -5150.85, -2093.44, 30916.57, -2176.59, -22923.28, 0.00, 0.00, 0.00
131, 2943.48, 5661.65, -9207.73, -5250.11, -2185.08, 31777.34, -2166.98, -23043.13, 0.00, 0.00, 0.00
132, 2980.54, 5696.23, -9349.91, -5286.99, -2230.17, 31178.98, -2367.65, -23033.43, 0.00, 0.00, 0.00
133, 3101.73, 5809.24, -9332.48, -5190.03, -2141.61, 30249.13, -2384.42, -22913.80, 0.00, 0.00, 0.00
134, 3077.01, 5790.46, -9203.98, -5151.09, -2102.20, 30736.62, -2210.39, -22914.20, 0.00, 0.00, 0.00
135, 2957.72, 5679.60, -9191.28, -5232.97, -2179.43, 31710.33, -2154.37, -23030.14, 0.05, 0.97, 0.19
136, 2964.53, 5684.23, -9328.61, -5290.17, -2227.17, 31396.64, -2330.82, -23046.03, 0.00, 0.00, 0.00
137, 3091.49, 5806.40, -9346.20, -5206.91, -2137.39, 30325.48, -2396.71, -22919.39, 0.00, 0.00, 0.00
138, 3102.69, 5810.76, -9210.62, -5146.87, -2081.77, 30576.96, -2228.74, -22891.63, 0.00, 0.00, 0.00
139, 2983.73, 5692.72, -9171.70, -5224.16, -2160.27, 31594.82, -2144.83, -23013.82, 0.00, 0.00, 0.00
140, 2944.31, 5666.03, -9304.45, -5300.58, -2235.44, 31574.68, -2292.42, -23064.45, 0.00, 0.00, 0.00
141, 3069.25, 5784.81, -9359.95, -5234.26, -2171.29, 30449.87, -2410.90, -22952.54, 0.00, 0.00, 0.00
142, 3099.43, 5810.63, -9240.43, -5167.05, -2104.06, 30434.65, -2269.53, -22907.70, 0.00, 0.00, 0.00
143, 2997.10, 5720.77, -9163.01, -5210.01, -2143.40, 31433.64, -2141.81, -22986.96, 0.00, 0.00, 0.00
144, 2958.41, 5687.49, -9248.73, -5274.50, -2206.94, 31717.08, -2225.32, -23037.81, 0.00, 0.00, 0.00
145, 3068.92, 5787.85, -9338.31, -5231.69, -2170.38, 30634.76, -2389.56, -22947.78, 0.06, 0.97, 0.19
146, 3117.98, 5831.10, -9249.87, -5152.21, -2091.54, 30344.28, -2283.61, -22882.87, 0.00, 0.00, 0.00
147, 3018.18, 5738.72, -9161.89, -5184.17, -2122.10, 31268.03, -2136.87, -22967.24, 0.00, 0.00, 0.00
148, 2928.17, 5653.29, -9241.71, -5281.20, -2219.48, 31789.37, -2203.57, -23068.25, 0.00, 0.00, 0.00
149, 3030.02, 5744.20, -9344.68, -5260.97, -2198.81, 30807.95, -2381.76, -22986.89, 0.00, 0.00, 0.00
150, 3111.16, 5822.74, -9267.79, -5170.79, -2104.93, 30264.02, -2312.04, -22888.88, 0.00, 0.00, 0.00
151, 3042.88, 5763.33, -9162.11, -5178.83, -2107.32, 31063.69, -2154.55, -22944.13, 0.00, 0.00, 0.00
152, 2951.46, 5675.02, -9200.22, -5266.23, -2198.54, 31803.92, -2163.34, -23046.84, 0.00, 0.00, 0.00
153, 3013.64, 5730.45, -9336.39, -5281.74, -2214.95, 31024.35, -2360.17, -23008.82, 0.00, 0.00, 0.00
154, 3112.66, 5825.11, -9292.09, -5186.30, -2123.57, 30236.19, -2339.29, -22897.21, 0.00, 0.00, 0.00
155, 3064.85, 5787.74, -9166.99, -5162.69, -2102.18, 30872.52, -2169.21, -22920.39, 0.06, 0.97, 0.19
156, 2947.55, 5675.38, -9175.84, -5252.82, -2186.87, 31765.05, -2144.74, -23038.99, 0.00, 0.00, 0.00
157, 2977.27, 5701.77, -9317.35, -5293.14, -2224.76, 31236.67, -2335.56, -23031.79, 0.00, 0.00, 0.00
158, 3101.01, 5819.37, -9306.62, -5196.91, -2126.81, 30273.29, -2359.83, -22902.92, 0.00, 0.00, 0.00
159, 3088.94, 5805.42, -9172.89, -5152.21, -2085.60, 30705.75, -2188.77, -22900.05, 0.00, 0.00, 0.00
160, 2969.38, 5692.85, -9152.84, -5234.40, -2170.89, 31688.58, -2129.25, -23021.33, 0.00, 0.00, 0.00
161, 2970.86, 5690.44, -9287.86, -5299.58, -2231.64, 31440.83, -2300.75, -23045.34, 0.00, 0.00, 0.00
162, 3098.53, 5808.95, -9315.02, -5221.64, -2150.77, 30352.88, -2379.95, -22922.74, 0.00, 0.00, 0.00
163, 3103.00, 5810.36, -9193.76, -5166.87, -2097.00, 30542.92, -2223.86, -22899.72, 0.00, 0.00, 0.00
164, 2986.37, 5708.12, -9141.48, -5226.20, -2156.25, 31550.38, -2122.07, -23004.46, 0.00, 0.00, 0.00
165, 2951.59, 5680.96, -9259.48, -5300.16, -2227.51, 31609.84, -2254.46, -23053.95, 0.06, 0.97, 0.20
166, 3067.75, 5784.81, -9329.57, -5246.31, -2172.68, 30492.56, -2388.06, -22949.63, 0.00, 0.00, 0.00
167, 3108.03, 5816.06, -9213.75, -5171.68, -2098.67, 30415.02, -2251.96, -22884.07, 0.00, 0.00, 0.00
168, 3005.42, 5727.61, -9126.28, -5206.79, -2132.76, 31403.15, -2120.26, -22971.54, 0.00, 0.00, 0.00
169, 2941.47, 5670.95, -9224.32, -5292.83, -2212.98, 31748.08, -2216.76, -23053.43, 0.00, 0.00, 0.00
170, 3055.66, 5773.19, -9322.96, -5253.11, -2180.35, 30682.53, -2381.29, -22959.26, 0.00, 0.00, 0.00
171, 3106.20, 5815.68, -9229.06, -5176.10, -2111.61, 30337.75, -2281.02, -22886.35, 0.00, 0.00, 0.00
172, 3020.01, 5737.71, -9123.60, -5199.04, -2139.67, 31232.16, -2137.77, -22961.12, 0.00, 0.00, 0.00
173, 2928.32, 5653.52, -9193.79, -5292.58, -2231.02, 31816.34, -2191.79, -23060.21, 0.00, 0.00, 0.00
174, 3022.65, 5740.96, -9300.47, -5272.60, -2206.74, 30877.66, -2371.54, -22986.67, 0.00, 0.00, 0.00
175, 3106.29, 5820.84, -9234.67, -5182.99, -2115.57, 30280.04, -2308.89, -22890.35, 0.06, 0.97, 0.19
176, 3048.76, 5769.34, -9110.50, -5177.76, -2109.94, 31050.55, -2142.03, -22933.16, 0.00, 0.00, 0.00
177, 2950.27, 5679.02, -9134.58, -5263.95, -2192.86, 31833.24, -2140.02, -23035.10, 0.00, 0.00, 0.00
178, 3012.55, 5732.51, -9269.80, -5284.67, -2209.74, 31104.87, -2329.90, -22996.39, 0.00, 0.00, 0.00
179, 3111.09, 5822.41, -9246.83, -5204.51, -2132.83, 30262.05, -2331.56, -22897.06, 0.00, 0.00, 0.00
180, 3076.58, 5794.56, -9115.49, -5176.57, -2106.32, 30844.42, -2158.87, -22912.30, 0.00, 0.00, 0.00
181, 2957.90, 5684.14, -9121.32, -5262.74, -2185.82, 31766.66, -2119.82, -23027.12, 0.00, 0.00, 0.00
182, 2973.97, 5696.59, -9269.89, -5313.59, -2233.41, 31306.70, -2310.88, -23033.63, 0.00, 0.00, 0.00
183, 3089.66, 5805.44, -9280.87, -5228.97, -2158.62, 30304.05, -2363.67, -22918.03, 0.00, 0.00, 0.00
184, 3082.10, 5799.12, -9148.41, -5179.93, -2116.75, 30684.92, -2198.23, -22908.39, 0.06, 0.97, 0.19
185, 2965.27, 5691.98, -9119.71, -5253.93, -2185.84, 31676.13, -2128.24, -23019.88, 0.00, 0.00, 0.00
186, 2960.22, 5684.03, -9246.78, -5318.42, -2246.48, 31495.62, -2292.86, -23053.39, 0.00, 0.00, 0.00
187, 3079.24, 5794.56, -9294.44, -5249.04, -2180.55, 30385.32, -2390.97, -22941.54, 0.00, 0.00, 0.00
188, 3099.36, 5809.20, -9167.48, -5178.99, -2116.73, 30514.36, -2232.87, -22903.09, 0.00, 0.00, 0.00
189, 2985.59, 5702.89, -9099.73, -5231.40, -2171.02, 31528.72, -2121.56, -23002.92, 0.00, 0.00, 0.00
190, 2944.51, 5665.41, -9213.21, -5306.62, -2241.19, 31645.31, -2242.46, -23059.60, 0.00, 0.00, 0.00
191, 3051.91, 5764.87, -9298.17, -5261.44, -2196.60, 30526.74, -2385.85, -22952.63, 0.00, 0.00, 0.00
192, 3098.94, 5807.50, -9189.63, -5178.77, -2111.66, 30388.94, -2251.65, -22885.37, 0.00, 0.00, 0.00
193, 3009.22, 5726.00, -9098.30, -5209.83, -2139.78, 31363.95, -2111.50, -22969.43, 0.00, 0.00, 0.00
194, 2943.81, 5666.95, -9187.84, -5295.82, -2221.00, 31766.54, -2190.31, -23045.88, 0.06, 0.97, 0.19
195, 3045.69, 5762.44, -9302.59, -5274.25, -2197.04, 30712.62, -2367.65, -22968.45, 0.00, 0.00, 0.00
196, 3126.11, 5832.67, -9202.68, -5177.83, -2114.32, 30303.85, -2270.00, -22878.71, 0.00, 0.00, 0.00
197, 3038.29, 5755.66, -9088.24, -5194.23, -2132.45, 31185.42, -2118.25, -22946.77, 0.00, 0.00, 0.00
198, 2934.58, 5653.16, -9155.39, -5296.92, -2233.63, 31816.86, -2168.43, -23065.28, 0.00, 0.00, 0.00
199, 3022.27, 5733.71, -9274.88, -5283.91, -2223.06, 30918.68, -2355.34, -22998.11, 0.00, 0.00, 0.00
200, 3104.28, 5812.73, -9215.15, -5193.74, -2132.22, 30257.80, -2308.51, -22897.55, 0.00, 0.00, 0.00
201, 3050.63, 5767.11, -9083.21, -5183.10, -2114.27, 30990.16, -2139.29, -22931.08, 0.00, 0.00, 0.00
202, 2927.07, 5646.59, -9118.19, -5294.03, -2213.11, 31811.31, -2141.16, -23056.58, 0.00, 0.00, 0.00
203, 2972.60, 5685.57, -9265.56, -5327.78, -2244.07, 31133.86, -2341.21, -23035.64, 0.00, 0.00, 0.00
204, 3101.73, 5807.32, -9233.42, -5221.79, -2140.11, 30257.62, -2333.01, -22904.66, 0.06, 0.97, 0.19
205, 3079.71, 5789.24, -9101.81, -5187.73, -2104.46, 30811.37, -2154.19, -22913.46, 0.00, 0.00, 0.00
206, 2953.13, 5672.27, -9100.00, -5280.29, -2188.59, 31752.46, -2112.04, -23036.94, 0.00, 0.00, 0.00
207, 2977.45, 5693.48, -9234.02, -5323.85, -2230.46, 31347.96, -2286.38, -23035.93, 0.00, 0.00, 0.00
208, 3105.91, 5812.41, -9238.36, -5233.62, -2149.54, 30308.47, -2341.73, -22912.75, 0.00, 0.00, 0.00
209, 3101.22, 5811.99, -9101.18, -5179.70, -2103.43, 30631.25, -2174.24, -22898.31, 0.00, 0.00, 0.00
210, 2989.84, 5707.72, -9059.81, -5243.85, -2167.76, 31634.27, -2085.78, -23004.08, 0.00, 0.00, 0.00
211, 2966.26, 5685.55, -9201.97, -5318.17, -2241.34, 31531.16, -2244.14, -23046.82, 0.00, 0.00, 0.00
212, 3095.36, 5806.13, -9253.11, -5244.46, -2170.33, 30415.67, -2348.36, -22925.71, 0.00, 0.00, 0.00
213, 3113.60, 5824.98, -9135.47, -5179.86, -2106.03, 30494.28, -2196.75, -22887.47, 0.00, 0.00, 0.00
214, 3002.58, 5720.53, -9072.13, -5237.15, -2151.00, 31502.28, -2083.61, -22992.43, 0.06, 0.97, 0.19
215, 2956.17, 5678.15, -9178.77, -5316.45, -2219.75, 31690.71, -2199.95, -23056.07, 0.00, 0.00, 0.00
216, 3074.86, 5787.63, -9258.41, -5273.13, -2181.24, 30573.68, -2351.78, -22959.85, 0.00, 0.00, 0.00
217, 3105.60, 5816.66, -9165.51, -5206.53, -2112.26, 30367.62, -2242.01, -22903.29, 0.00, 0.00, 0.00
218, 3021.87, 5741.74, -9069.00, -5227.89, -2129.00, 31312.98, -2099.48, -22979.60, 0.00, 0.00, 0.00
219, 2953.56, 5681.01, -9140.77, -5311.09, -2215.19, 31773.65, -2167.47, -23062.64, 0.00, 0.00, 0.00
220, 3046.63, 5763.13, -9265.22, -5295.37, -2204.69, 30747.04, -2357.73, -22986.71, 0.00, 0.00, 0.00
221, 3131.05, 5834.94, -9184.42, -5200.42, -2102.61, 30283.35, -2263.43, -22885.10, 0.00, 0.00, 0.00
222, 3051.33, 5760.96, -9093.74, -5220.29, -2109.49, 31136.22, -2106.00, -22949.54, 0.00, 0.00, 0.00
223, 2943.64, 5661.61, -9182.95, -5325.39, -2205.69, 31816.77, -2143.69, -23064.03, 0.00, 0.00, 0.00
224, 3019.09, 5734.09, -9349.51, -5330.49, -2204.71, 30970.26, -2343.27, -23011.99, 0.05, 0.97, 0.20
225, 3114.27, 5825.60, -9348.04, -5231.22, -2110.14, 30259.70, -2311.22, -22902.87, 0.00, 0.00, 0.00
226, 3062.55, 5776.83, -9285.18, -5215.78, -2093.73, 30950.55, -2146.86, -22934.59, 0.00, 0.00, 0.00
227, 2947.14, 5671.35, -9378.59, -5306.62, -2177.48, 31798.93, -2137.70, -23050.41, 0.00, 0.00, 0.00
228, 2991.76, 5713.51, -9594.40, -5330.27, -2204.91, 31184.57, -2335.06, -23025.58, 0.00, 0.00, 0.00
229, 3113.13, 5829.42, -9658.72, -5228.56, -2118.65, 30272.71, -2350.98, -22902.54, 0.00, 0.00, 0.00
230, 3086.95, 5808.70, -9639.32, -5197.61, -2090.51, 30770.39, -2191.39, -22914.16, 0.00, 0.00, 0.00
231, 2964.96, 5691.04, -9720.37, -5269.58, -2160.74, 31735.74, -2141.79, -23023.99, 0.00, 0.00, 0.00
232, 2969.00, 5693.46, -9935.89, -5314.75, -2206.27, 31406.61, -2323.26, -23036.18, 0.00, 0.00, 0.00
233, 3092.81, 5804.48, -10027.93, -5228.94, -2127.01, 30350.18, -2399.91, -22918.25, 0.00, 0.00, 0.00
234, 3102.60, 5809.93, -9980.48, -5162.65, -2067.25, 30621.29, -2240.65, -22898.24, 0.05, 0.97, 0.19
235, 2986.66, 5704.41, -10023.50, -5226.15, -2133.76, 31628.61, -2163.74, -23014.34, 0.00, 0.00, 0.00
236, 2963.08, 5679.87, -10205.78, -5293.92, -2203.64, 31590.57, -2318.32, -23048.13, 0.00, 0.00, 0.00
237, 3092.74, 5801.71, -10293.38, -5218.71, -2138.21, 30472.00, -2439.09, -22929.36, 0.00, 0.00, 0.00
238, 3133.67, 5841.27, -10198.63, -5129.43, -2057.52, 30486.68, -2288.95, -22872.61, 0.00, 0.00, 0.00
239, 3028.91, 5749.40, -10168.59, -5169.67, -2106.90, 31487.33, -2181.13, -22976.05, 0.00, 0.00, 0.00
240, 2964.56, 5686.35, -10297.16, -5253.06, -2200.89, 31739.43, -2308.56, -23060.99, 0.00, 0.00, 0.00
241, 3071.49, 5789.86, -10383.75, -5201.65, -2159.00, 30636.75, -2474.67, -22966.77, 0.00, 0.00, 0.00
242, 3129.07, 5845.38, -10306.81, -5108.67, -2066.02, 30376.24, -2359.05, -22892.79, 0.00, 0.00, 0.00
243, 3046.95, 5767.73, -10240.90, -5129.03, -2075.31, 31305.14, -2217.40, -22958.97, 0.00, 0.00, 0.00
244, 2972.47, 5691.74, -10311.93, -5216.56, -2172.28, 31818.18, -2282.49, -23050.08, 0.06, 0.97, 0.20
245, 3072.81, 5779.85, -10386.88, -5197.52, -2160.12, 30833.69, -2468.35, -22977.17, 0.00, 0.00, 0.00
246, 3142.61, 5849.27, -10299.77, -5110.99, -2075.29, 30315.63, -2398.88, -22885.77, 0.00, 0.00, 0.00
247, 3067.22, 5783.04, -10199.91, -5121.50, -2085.82, 31126.21, -2249.32, -22943.37, 0.00, 0.00, 0.00
248, 2960.29, 5679.53, -10252.34, -5221.41, -2183.30, 31840.15, -2275.61, -23061.21, 0.00, 0.00, 0.00
249, 3037.53, 5756.76, -10340.59, -5222.04, -2181.89, 31039.60, -2462.98, -23003.88, 0.00, 0.00, 0.00
250, 3144.29, 5854.75, -10266.87, -5122.24, -2087.05, 30290.32, -2433.93, -22888.99, 0.00, 0.00, 0.00
251, 3098.49, 5811.43, -10142.68, -5102.81, -2068.48, 30946.21, -2268.28, -22921.22, 0.00, 0.00, 0.00
252, 2980.81, 5702.18, -10161.24, -5191.66, -2155.69, 31826.94, -2253.10, -23040.31, 0.00, 0.00, 0.00
253, 3018.58, 5738.88, -10262.51, -5220.74, -2189.73, 31278.54, -2442.71, -23023.93, 0.00, 0.00, 0.00
254, 3130.54, 5840.02, -10230.62, -5136.97, -2109.98, 30324.79, -2470.18, -22903.88, 0.06, 0.97, 0.20
255, 3119.99, 5833.89, -10104.24, -5090.54, -2062.44, 30774.91, -2291.28, -22890.35, 0.00, 0.00, 0.00
0, 2995.45, 5715.92, -10101.45, -5171.03, -2138.66, 31758.05, -2230.39, -23007.79, 0.00, 0.00, 0.00
1, 2991.27, 5706.94, -10221.94, -5233.97, -2201.20, 31485.18, -2410.55, -23037.25, 0.00, 0.00, 0.00
2, 3113.58, 5821.98, -10221.56, -5157.96, -2124.33, 30399.62, -2485.09, -22915.32, 0.00, 0.00, 0.00
3, 3125.53, 5836.78, -10086.36, -5093.34, -2058.84, 30610.06, -2316.69, -22881.46, 0.00, 0.00, 0.00
4, 3011.05, 5733.27, -10035.26, -5153.78, -2117.58, 31621.97, -2221.54, -22989.82, 0.00, 0.00, 0.00
5, 2973.41, 5698.55, -10137.88, -5231.81, -2196.33, 31644.23, -2366.54, -23050.17, 0.00, 0.00, 0.00
6, 3103.03, 5822.20, -10159.38, -5159.30, -2130.81, 30517.82, -2485.11, -22925.31, 0.00, 0.00, 0.00
7, 3138.21, 5853.63, -10038.97, -5079.08, -2054.33, 30469.43, -2339.53, -22869.05, 0.00, 0.00, 0.00
8, 3029.11, 5743.68, -9985.69, -5129.14, -2105.47, 31448.79, -2227.87, -22974.29, 0.06, 0.97, 0.19
9, 2968.33, 5689.26, -10077.04, -5210.57, -2192.95, 31768.13, -2329.36, -23052.05, 0.00, 0.00, 0.00
10, 3081.77, 5799.63, -10134.44, -5162.63, -2145.81, 30699.79, -2481.76, -22949.81, 0.00, 0.00, 0.00
11, 3144.94, 5860.16, -10024.69, -5075.99, -2062.60, 30377.96, -2371.79, -22868.99, 0.00, 0.00, 0.00
12, 3046.79, 5768.72, -9948.29, -5116.92, -2096.57, 31277.64, -2239.06, -22957.03, 0.00, 0.00, 0.00
13, 2961.58, 5685.37, -10024.33, -5212.07, -2185.69, 31836.84, -2292.24, -23048.43, 0.00, 0.00, 0.00
14, 3046.21, 5762.61, -10120.71, -5204.49, -2174.20, 30888.84, -2476.75, -22977.77, 0.00, 0.00, 0.00
15, 3131.32, 5840.71, -10035.98, -5110.35, -2079.23, 30308.83, -2406.99, -22875.58, 0.00, 0.00, 0.00
16, 3074.53, 5788.30, -9927.73, -5101.88, -2075.65, 31093.60, -2243.31, -22919.41, 0.00, 0.00, 0.00
17, 2975.37, 5698.06, -9961.86, -5185.87, -2162.73, 31867.53, -2250.87, -23024.33, 0.06, 0.98, 0.20
18, 3029.06, 5745.25, -10075.90, -5208.05, -2184.17, 31123.10, -2450.56, -22995.96, 0.00, 0.00, 0.00
19, 3135.75, 5840.31, -10028.87, -5118.30, -2092.28, 30311.49, -2437.70, -22885.03, 0.00, 0.00, 0.00
20, 3096.68, 5805.69, -9916.28, -5095.75, -2066.37, 30922.54, -2267.63, -22899.96, 0.00, 0.00, 0.00
21, 2974.03, 5696.19, -9931.82, -5180.80, -2145.19, 31828.53, -2235.22, -23015.86, 0.00, 0.00, 0.00
22, 3001.86, 5733.40, -10044.76, -5211.71, -2184.30, 31333.90, -2417.43, -23005.02, 0.00, 0.00, 0.00
23, 3121.38, 5844.65, -10021.99, -5121.05, -2103.39, 30349.53, -2453.80, -22887.11, 0.00, 0.00, 0.00
24, 3105.37, 5823.59, -9903.88, -5077.98, -2063.33, 30750.17, -2286.45, -22882.58, 0.00, 0.00, 0.00
25, 2985.32, 5706.20, -9891.90, -5155.36, -2137.25, 31742.67, -2219.71, -22999.30, 0.00, 0.00, 0.00
26, 2982.68, 5704.41, -10004.13, -5213.48, -2198.54, 31529.48, -2384.24, -23027.12, 0.00, 0.00, 0.00
27, 3123.39, 5836.67, -9996.50, -5122.82, -2115.61, 30423.14, -2463.32, -22899.45, 0.06, 0.97, 0.19
28, 3140.96, 5851.66, -9867.69, -5057.75, -2051.82, 30580.18, -2308.18, -22868.20, 0.00, 0.00, 0.00
29, 3031.01, 5752.11, -9817.91, -5111.44, -2105.38, 31606.44, -2203.97, -22964.27, 0.00, 0.00, 0.00
30, 2983.20, 5707.61, -9924.93, -5194.70, -2186.49, 31704.92, -2336.36, -23023.73, 0.00, 0.00, 0.00
31, 3099.40, 5811.90, -9962.44, -5144.16, -2134.57, 30576.43, -2471.45, -22924.22, 0.00, 0.00, 0.00
32, 3137.54, 5844.33, -9842.34, -5071.43, -2058.51, 30455.21, -2339.91, -22867.94, 0.00, 0.00, 0.00
33, 3038.18, 5754.59, -9764.85, -5114.70, -2090.89, 31421.63, -2215.24, -22959.17, 0.00, 0.00, 0.00
34, 2965.38, 5688.36, -9844.54, -5208.09, -2187.50, 31793.43, -2307.80, -23047.02, 0.00, 0.00, 0.00
35, 3075.89, 5790.96, -9905.00, -5172.35, -2149.86, 30733.78, -2472.51, -22953.47, 0.00, 0.00, 0.00
36, 3139.06, 5847.08, -9805.91, -5089.92, -2064.94, 30360.73, -2374.16, -22875.54, 0.00, 0.00, 0.00
37, 3052.94, 5770.57, -9708.86, -5110.10, -2088.48, 31246.98, -2226.93, -22945.63, 0.06, 0.97, 0.19
38, 2957.00, 5679.53, -9775.00, -5209.41, -2181.73, 31852.26, -2277.17, -23047.78, 0.00, 0.00, 0.00
39, 3041.98, 5760.38, -9873.03, -5204.92, -2169.82, 30937.29, -2456.39, -22977.12, 0.00, 0.00, 0.00
40, 3121.00, 5829.51, -9808.06, -5121.37, -2086.04, 30303.80, -2404.98, -22878.84, 0.00, 0.00, 0.00
41, 3072.76, 5785.55, -9691.11, -5106.64, -2072.54, 31047.09, -2235.87, -22916.77, 0.00, 0.00, 0.00
42, 2963.04, 5682.31, -9722.25, -5200.65, -2164.41, 31855.59, -2234.86, -23032.04, 0.00, 0.00, 0.00
43, 3011.67, 5725.60, -9841.00, -5225.70, -2188.93, 31164.39, -2432.67, -23004.17, 0.00, 0.00, 0.00
44, 3123.16, 5830.74, -9795.56, -5125.17, -2097.13, 30304.81, -2424.63, -22884.16, 0.00, 0.00, 0.00
45, 3097.95, 5809.13, -9665.74, -5085.07, -2060.54, 30872.92, -2244.85, -22891.49, 0.00, 0.00, 0.00
46, 2980.99, 5695.65, -9680.61, -5173.56, -2146.08, 31809.53, -2210.90, -23012.39, 0.00, 0.00, 0.00
47, 3005.50, 5720.48, -9800.48, -5209.45, -2185.31, 31382.85, -2391.35, -23009.47, 0.06, 0.97, 0.19
48, 3128.04, 5839.46, -9787.63, -5114.12, -2095.27, 30365.02, -2434.02, -22882.55, 0.00, 0.00, 0.00
49, 3116.66, 5831.70, -9666.66, -5068.64, -2037.27, 30709.64, -2261.21, -22869.21, 0.00, 0.00, 0.00
50, 2992.74, 5716.82, -9657.38, -5149.95, -2110.61, 31714.62, -2188.24, -22987.70, 0.00, 0.00, 0.00
51, 2979.20, 5698.13, -9786.73, -5219.67, -2187.83, 31575.86, -2354.78, -23029.85, 0.00, 0.00, 0.00
52, 3111.03, 5822.25, -9806.65, -5134.35, -2110.50, 30460.89, -2443.78, -22896.70, 0.00, 0.00, 0.00
53, 3126.87, 5838.70, -9688.34, -5065.96, -2047.89, 30556.89, -2297.07, -22863.73, 0.00, 0.00, 0.00
54, 3020.03, 5738.12, -9638.27, -5114.68, -2104.33, 31568.46, -2191.05, -22970.24, 0.00, 0.00, 0.00
55, 2978.53, 5699.45, -9738.01, -5186.59, -2173.75, 31738.38, -2306.83, -23028.91, 0.00, 0.00, 0.00
56, 3092.54, 5805.62, -9795.96, -5142.00, -2129.88, 30621.31, -2449.97, -22925.67, 0.00, 0.00, 0.00
57, 3139.32, 5846.05, -9690.80, -5066.65, -2056.41, 30442.31, -2323.17, -22862.01, 0.05, 0.96, 0.19
58, 3039.75, 5753.54, -9624.86, -5107.42, -2094.00, 31405.61, -2192.08, -22947.89, 0.00, 0.00, 0.00
59, 2968.29, 5679.98, -9715.39, -5202.90, -2181.17, 31830.13, -2270.69, -23030.41, 0.00, 0.00, 0.00
60, 3062.50, 5770.68, -9800.35, -5182.30, -2154.69, 30795.74, -2442.76, -22947.51, 0.00, 0.00, 0.00
61, 3120.66, 5830.68, -9721.49, -5099.42, -2073.73, 30358.05, -2357.93, -22868.20, 0.00, 0.00, 0.00
62, 3046.68, 5761.50, -9629.62, -5110.19, -2087.47, 31213.54, -2206.47, -22927.73, 0.00, 0.00, 0.00
63, 2950.45, 5677.10, -9690.91, -5199.89, -2174.06, 31868.83, -2238.88, -23025.92, 0.00, 0.00, 0.00
64, 3035.23, 5757.54, -9793.28, -5193.09, -2161.53, 31000.17, -2422.97, -22966.80, 0.00, 0.00, 0.00
65, 3139.32, 5849.88, -9721.76, -5092.17, -2067.80, 30318.69, -2374.02, -22856.98, 0.00, 0.00, 0.00
66, 3086.84, 5798.96, -9605.28, -5080.91, -2063.69, 31030.84, -2208.60, -22895.45, 0.00, 0.00, 0.00
67, 2971.40, 5690.80, -9639.68, -5176.17, -2155.71, 31871.53, -2202.65, -23011.23, 0.06, 0.96, 0.19
68, 3011.41, 5727.52, -9763.31, -5210.55, -2186.29, 31232.09, -2399.21, -22993.46, 0.00, 0.00, 0.00
69, 3122.09, 5828.53, -9728.31, -5120.09, -2094.13, 30326.98, -2401.74, -22873.75, 0.00, 0.00, 0.00
70, 3086.24, 5796.66, -9612.79, -5095.66, -2064.32, 30845.18, -2232.69, -22887.22, 0.00, 0.00, 0.00
71, 2982.30, 5703.65, -9601.62, -5164.82, -2130.32, 31798.89, -2173.04, -22989.08, 0.00, 0.00, 0.00
72, 2996.14, 5717.31, -9722.32, -5211.71, -2170.96, 31438.58, -2347.40, -22996.75, 0.00, 0.00, 0.00
73, 3104.34, 5816.21, -9731.97, -5144.16, -2100.08, 30379.95, -2421.95, -22895.16, 0.00, 0.00, 0.00
74, 3101.80, 5813.55, -9607.38, -5089.04, -2048.65, 30662.39, -2260.28, -22879.58, 0.00, 0.00, 0.00
75, 2993.17, 5713.40, -9570.01, -5147.92, -2105.62, 31668.93, -2169.13, -22986.11, 0.00, 0.00, 0.00
76, 2979.69, 5694.69, -9676.94, -5212.52, -2180.99, 31600.65, -2320.31, -23019.95, 0.00, 0.00, 0.00
77, 3104.37, 5814.23, -9703.14, -5136.59, -2118.65, 30487.62, -2428.90, -22904.30, 0.06, 0.97, 0.19
78, 3129.02, 5840.42, -9580.78, -5062.60, -2050.82, 30528.15, -2279.52, -22855.44, 0.00, 0.00, 0.00
79, 3014.83, 5735.75, -9528.24, -5118.08, -2102.63, 31529.68, -2170.29, -22958.55, 0.00, 0.00, 0.00
80, 2960.85, 5683.06, -9629.09, -5207.06, -2179.16, 31744.71, -2281.67, -23028.91, 0.00, 0.00, 0.00
81, 3073.50, 5786.15, -9692.66, -5167.21, -2134.06, 30635.59, -2432.74, -22931.01, 0.00, 0.00, 0.00
82, 3124.48, 5835.95, -9585.63, -5086.88, -2052.07, 30398.73, -2309.76, -22858.14, 0.00, 0.00, 0.00
83, 3031.43, 5750.08, -9497.23, -5120.69, -2081.15, 31342.64, -2166.80, -22935.17, 0.00, 0.00, 0.00
84, 2953.81, 5673.86, -9573.41, -5216.90, -2171.05, 31833.76, -2234.93, -23028.02, 0.00, 0.00, 0.00
85, 3048.91, 5764.29, -9666.39, -5199.93, -2153.90, 30834.65, -2420.74, -22954.75, 0.00, 0.00, 0.00
86, 3124.17, 5835.48, -9578.21, -5109.43, -2065.95, 30339.63, -2339.04, -22859.96, 0.00, 0.00, 0.00
87, 3050.39, 5771.89, -9470.79, -5118.30, -2076.97, 31160.97, -2184.15, -22923.68, 0.06, 0.97, 0.19
88, 2952.02, 5682.31, -9516.95, -5210.82, -2160.88, 31860.58, -2203.41, -23025.18, 0.00, 0.00, 0.00
89, 3027.21, 5748.38, -9625.71, -5211.51, -2156.85, 31045.48, -2387.66, -22969.63, 0.00, 0.00, 0.00
90, 3126.09, 5839.33, -9565.81, -5115.24, -2058.22, 30307.71, -2350.04, -22858.37, 0.00, 0.00, 0.00
91, 3072.90, 5791.25, -9442.40, -5104.24, -2054.44, 30975.94, -2189.82, -22896.28, 0.00, 0.00, 0.00
92, 2955.53, 5682.69, -9462.21, -5198.75, -2152.79, 31839.81, -2181.04, -23015.61, 0.00, 0.00, 0.00
93, 2990.06, 5714.11, -9592.00, -5234.06, -2190.23, 31255.40, -2376.75, -23004.71, 0.00, 0.00, 0.00
94, 3114.83, 5829.65, -9559.13, -5127.45, -2090.83, 30321.06, -2384.31, -22873.70, 0.00, 0.00, 0.00
95, 3088.70, 5803.65, -9431.63, -5092.26, -2057.77, 30797.39, -2214.97, -22882.11, 0.00, 0.00, 0.00
96, 2975.37, 5689.75, -9421.95, -5176.87, -2135.57, 31766.48, -2158.37, -22998.78, 0.06, 0.97, 0.19
97, 2987.15, 5701.53, -9542.41, -5227.20, -2182.98, 31461.17, -2325.92, -23012.21, 0.00, 0.00, 0.00
98, 3105.19, 5825.83, -9544.19, -5145.62, -2102.07, 30386.23, -2392.49, -22892.43, 0.00, 0.00, 0.00
99, 3103.11, 5824.24, -9428.46, -5097.49, -2057.23, 30617.26, -2243.69, -22883.38, 0.00, 0.00, 0.00
100, 2992.32, 5722.27, -9386.62, -5156.86, -2116.35, 31621.88, -2148.99, -22979.34, 0.00, 0.00, 0.00
101, 2966.66, 5697.77, -9499.40, -5227.22, -2181.64, 31619.85, -2290.99, -23026.03, 0.00, 0.00, 0.00
102, 3095.05, 5815.57, -9540.71, -5157.93, -2125.16, 30500.34, -2405.87, -22910.13, 0.00, 0.00, 0.00
103, 3117.08, 5837.02, -9423.38, -5089.89, -2062.93, 30487.20, -2264.16, -22861.77, 0.00, 0.00, 0.00
104, 3008.54, 5737.22, -9357.51, -5138.76, -2107.84, 31476.29, -2148.34, -22962.66, 0.00, 0.00, 0.00
105, 2961.34, 5694.69, -9444.51, -5216.47, -2178.65, 31749.71, -2243.71, -23027.48, 0.00, 0.00, 0.00
106, 3074.06, 5799.70, -9522.11, -5180.89, -2138.39, 30659.24, -2401.61, -22934.72, 0.06, 0.97, 0.20
107, 3134.27, 5851.73, -9424.75, -5098.41, -2056.76, 30361.13, -2290.29, -22862.84, 0.00, 0.00, 0.00
108, 3046.50, 5767.96, -9327.87, -5125.81, -2085.66, 31279.81, -2150.82, -22938.90, 0.00, 0.00, 0.00
109, 2957.85, 5686.31, -9402.60, -5222.02, -2181.17, 31816.21, -2209.40, -23034.72, 0.00, 0.00, 0.00
110, 3039.75, 5762.41, -9519.18, -5219.11, -2176.93, 30843.86, -2404.98, -22972.05, 0.00, 0.00, 0.00
111, 3119.72, 5839.57, -9436.91, -5128.09, -2080.81, 30286.52, -2329.19, -22867.67, 0.00, 0.00, 0.00
112, 3058.57, 5784.14, -9316.45, -5124.52, -2071.98, 31078.15, -2158.20, -22912.04, 0.00, 0.00, 0.00
113, 2964.06, 5691.85, -9352.80, -5211.91, -2154.33, 31827.99, -2164.48, -23015.28, 0.00, 0.00, 0.00
114, 3025.31, 5747.82, -9479.51, -5225.32, -2170.20, 31062.98, -2363.63, -22981.82, 0.00, 0.00, 0.00
115, 3127.59, 5845.76, -9432.23, -5123.40, -2074.15, 30283.21, -2344.14, -22869.83, 0.00, 0.00, 0.00
116, 3072.90, 5791.58, -9318.82, -5114.03, -2061.41, 30905.98, -2184.41, -22907.10, 0.06, 0.97, 0.20
117, 2960.24, 5684.03, -9327.41, -5197.03, -2146.39, 31793.99, -2153.95, -23019.99, 0.00, 0.00, 0.00
118, 2996.90, 5719.39, -9453.94, -5227.85, -2179.18, 31279.10, -2337.17, -23002.87, 0.00, 0.00, 0.00
119, 3121.29, 5834.23, -9440.62, -5132.50, -2088.66, 30309.90, -2366.76, -22880.43, 0.00, 0.00, 0.00
120, 3112.95, 5828.62, -9302.28, -5081.42, -2037.34, 30736.64, -2190.23, -22861.50, 0.00, 0.00, 0.00
121, 2991.62, 5717.62, -9278.81, -5159.39, -2113.72, 31726.78, -2122.97, -22975.83, 0.00, 0.00, 0.00
122, 2990.42, 5715.07, -9404.14, -5220.50, -2172.77, 31496.13, -2288.24, -23001.53, 0.00, 0.00, 0.00
123, 3101.37, 5816.50, -9435.50, -5153.71, -2100.55, 30401.21, -2376.93, -22892.03, 0.00, 0.00, 0.00
124, 3104.75, 5821.11, -9318.08, -5096.02, -2047.69, 30571.44, -2224.60, -22865.39, 0.00, 0.00, 0.00
125, 2994.53, 5719.50, -9269.22, -5154.56, -2107.88, 31573.83, -2122.41, -22970.69, 0.00, 0.00, 0.00
126, 2960.62, 5687.33, -9378.32, -5230.26, -2186.27, 31635.79, -2256.21, -23023.08, 0.06, 0.97, 0.20
127, 3082.53, 5803.45, -9429.96, -5172.46, -2132.16, 30521.11, -2388.73, -22914.98, 0.00, 0.00, 0.00
128, 3133.02, 5848.69, -9303.73, -5084.78, -2046.66, 30440.41, -2245.70, -22848.31, 0.00, 0.00, 0.00
129, 3026.56, 5752.58, -9228.86, -5125.75, -2086.89, 31420.85, -2120.06, -22940.69, 0.00, 0.00, 0.00
130, 2957.31, 5688.38, -9330.60, -5216.38, -2175.88, 31770.86, -2218.68, -23022.56, 0.00, 0.00, 0.00
131, 3067.08, 5790.35, -9423.58, -5181.09, -2142.66, 30701.19, -2385.69, -22933.87, 0.00, 0.00, 0.00
132, 3132.78, 5854.91, -9326.64, -5092.76, -2052.54, 30349.64, -2275.68, -22851.53, 0.00, 0.00, 0.00
133, 3029.24, 5754.32, -9243.32, -5133.01, -2090.72, 31240.45, -2142.79, -22940.64, 0.00, 0.00, 0.00
134, 2951.97, 5678.75, -9309.01, -5220.63, -2174.29, 31818.24, -2187.57, -23031.10, 0.00, 0.00, 0.00
135, 3056.24, 5778.26, -9405.77, -5194.37, -2150.22, 30896.12, -2363.79, -22952.31, 0.00, 0.00, 0.00
136, 3143.28, 5858.03, -9339.27, -5101.16, -2059.27, 30296.16, -2302.94, -22855.78, 0.07, 0.97, 0.19
137, 3078.86, 5798.62, -9225.82, -5103.82, -2057.68, 31053.72, -2140.43, -22908.77, 0.00, 0.00, 0.00
138, 2962.30, 5690.37, -9265.09, -5206.79, -2156.23, 31836.73, -2152.41, -23027.19, 0.00, 0.00, 0.00
139, 3020.91, 5747.37, -9394.82, -5225.73, -2175.96, 31122.86, -2347.67, -22989.24, 0.00, 0.00, 0.00
140, 3127.21, 5845.34, -9363.06, -5139.60, -2093.08, 30281.79, -2340.97, -22878.55, 0.00, 0.00, 0.00
141, 3089.35, 5807.05, -9234.47, -5115.67, -2067.34, 30858.39, -2169.95, -22896.95, 0.00, 0.00, 0.00
142, 2976.00, 5699.61, -9224.05, -5193.34, -2140.27, 31790.30, -2123.89, -23006.47, 0.00, 0.00, 0.00
143, 3003.20, 5725.42, -9352.33, -5230.96, -2176.99, 31339.51, -2303.03, -22994.27, 0.00, 0.00, 0.00
144, 3117.35, 5835.84, -9355.05, -5149.95, -2101.09, 30326.09, -2353.24, -22880.52, 0.00, 0.00, 0.00
145, 3104.12, 5823.41, -9234.51, -5108.78, -2064.74, 30710.63, -2193.69, -22884.79, 0.00, 0.00, 0.00
146, 2991.74, 5718.76, -9204.16, -5176.19, -2137.47, 31732.75, -2119.17, -22996.77, 0.07, 0.97, 0.19
147, 2990.31, 5719.14, -9326.76, -5227.07, -2185.78, 31568.66, -2271.07, -23013.22, 0.00, 0.00, 0.00
148, 3121.00, 5841.05, -9355.90, -5144.75, -2106.83, 30448.30, -2358.02, -22887.07, 0.00, 0.00, 0.00
149, 3124.91, 5844.78, -9235.45, -5091.82, -2056.83, 30587.80, -2212.31, -22864.74, 0.00, 0.00, 0.00
150, 3016.12, 5747.80, -9179.55, -5144.39, -2118.43, 31620.72, -2107.86, -22967.04, 0.00, 0.00, 0.00
151, 2983.20, 5714.51, -9283.98, -5216.32, -2186.87, 31754.88, -2225.21, -23013.96, 0.00, 0.00, 0.00
152, 3100.59, 5823.05, -9354.18, -5168.77, -2134.93, 30628.62, -2363.50, -22908.19, 0.00, 0.00, 0.00
153, 3144.31, 5859.87, -9243.88, -5089.69, -2056.43, 30497.95, -2233.39, -22845.92, 0.00, 0.00, 0.00
154, 3058.05, 5781.81, -9154.63, -5117.48, -2080.54, 31492.02, -2090.16, -22920.13, 0.00, 0.00, 0.00
155, 2992.21, 5720.50, -9240.81, -5204.51, -2164.30, 31916.59, -2171.29, -23003.95, 0.00, 0.00, 0.00
156, 3083.02, 5806.83, -9351.14, -5188.98, -2147.29, 30860.70, -2357.84, -22933.36, 0.06, 0.97, 0.19
157, 3150.10, 5871.58, -9274.79, -5097.65, -2059.11, 30452.33, -2265.73, -22846.88, 0.00, 0.00, 0.00
158, 3071.31, 5796.90, -9196.16, -5108.76, -2067.58, 31363.21, -2111.88, -22910.58, 0.00, 0.00, 0.00
159, 2980.36, 5714.65, -9279.01, -5195.04, -2146.33, 32032.42, -2145.28, -23009.60, 0.00, 0.00, 0.00
160, 3062.41, 5793.17, -9431.18, -5186.05, -2143.26, 31146.75, -2338.64, -22949.12, 0.00, 0.00, 0.00
161, 3163.00, 5886.49, -9412.14, -5085.67, -2047.13, 30485.79, -2289.09, -22836.26, 0.00, 0.00, 0.00
162, 3102.98, 5829.58, -9358.76, -5080.75, -2043.49, 31240.43, -2128.47, -22880.68, 0.00, 0.00, 0.00
163, 2990.60, 5725.98, -9463.13, -5172.37, -2132.33, 32081.19, -2127.95, -22997.17, 0.00, 0.00, 0.00
164, 3037.47, 5771.38, -9660.40, -5197.83, -2157.17, 31401.41, -2333.37, -22970.57, 0.00, 0.00, 0.00
165, 3151.51, 5877.39, -9692.05, -5094.50, -2060.96, 30507.56, -2337.14, -22846.88, 0.00, 0.00, 0.00
166, 3124.97, 5850.14, -9636.08, -5055.72, -2028.89, 31067.27, -2163.58, -22860.51, 0.06, 0.97, 0.19
167, 3012.55, 5747.62, -9697.10, -5125.43, -2101.96, 32032.84, -2116.42, -22968.12, 0.00, 0.00, 0.00
168, 3024.73, 5755.82, -9890.89, -5174.41, -2150.39, 31633.55, -2309.76, -22979.40, 0.00, 0.00, 0.00
169, 3144.20, 5864.29, -9944.22, -5090.63, -2067.51, 30576.52, -2373.40, -22856.74, 0.00, 0.00, 0.00
170, 3130.83, 5853.45, -9875.69, -5042.08, -2023.21, 30905.60, -2213.63, -22847.93, 0.00, 0.00, 0.00
171, 3019.97, 5749.72, -9893.31, -5103.71, -2082.98, 31931.97, -2131.51, -22955.38, 0.00, 0.00, 0.00
172, 2999.34, 5727.17, -10056.85, -5175.12, -2149.05, 31832.50, -2290.36, -22999.72, 0.00, 0.00, 0.00
173, 3126.45, 5848.65, -10113.11, -5104.80, -2086.00, 30696.41, -2405.32, -22882.51, 0.00, 0.00, 0.00
174, 3152.00, 5875.80, -10013.51, -5030.46, -2024.04, 30773.61, -2258.02, -22835.61, 0.00, 0.00, 0.00
175, 3051.66, 5776.45, -9975.40, -5074.76, -2070.38, 31804.21, -2144.14, -22931.66, 0.00, 0.00, 0.00
176, 3000.34, 5730.12, -10101.18, -5158.00, -2149.54, 31995.54, -2269.51, -22999.70, 0.05, 0.96, 0.19
177, 3115.25, 5836.76, -10175.21, -5108.29, -2102.74, 30860.07, -2424.20, -22900.23, 0.00, 0.00, 0.00
178, 3161.41, 5878.29, -10079.63, -5024.36, -2024.11, 30655.04, -2302.81, -22834.79, 0.00, 0.00, 0.00
179, 3061.36, 5787.11, -10017.98, -5060.75, -2059.20, 31624.90, -2175.14, -22921.85, 0.00, 0.00, 0.00
180, 2987.82, 5720.73, -10102.59, -5148.50, -2142.24, 32087.94, -2249.39, -23006.56, 0.00, 0.00, 0.00
181, 3078.30, 5802.94, -10196.17, -5135.63, -2128.38, 31041.63, -2433.68, -22934.28, 0.00, 0.00, 0.00
182, 3145.63, 5864.45, -10113.76, -5050.69, -2047.89, 30558.83, -2356.81, -22849.63, 0.00, 0.00, 0.00
183, 3079.13, 5804.05, -10005.96, -5054.67, -2046.91, 31420.81, -2198.65, -22903.59, 0.00, 0.00, 0.00
184, 2975.71, 5708.57, -10062.73, -5154.09, -2136.54, 32121.27, -2229.90, -23009.80, 0.00, 0.00, 0.00
185, 3051.86, 5778.40, -10155.09, -5156.59, -2140.49, 31253.30, -2425.66, -22958.01, 0.05, 0.96, 0.19
186, 3146.37, 5862.57, -10082.60, -5059.29, -2045.45, 30525.37, -2384.60, -22854.75, 0.00, 0.00, 0.00
187, 3090.42, 5814.00, -9975.49, -5044.10, -2042.01, 31231.38, -2223.17, -22887.67, 0.00, 0.00, 0.00
188, 2983.38, 5717.82, -9995.30, -5125.05, -2127.82, 32096.37, -2205.83, -22995.09, 0.00, 0.00, 0.00
189, 3028.33, 5754.17, -10103.75, -5157.80, -2157.70, 31462.61, -2400.26, -22975.11, 0.00, 0.00, 0.00
190, 3141.43, 5856.89, -10062.64, -5068.79, -2070.31, 30522.87, -2415.15, -22854.46, 0.00, 0.00, 0.00
191, 3108.08, 5830.72, -9940.13, -5036.21, -2034.88, 31028.65, -2244.92, -22862.75, 0.00, 0.00, 0.00
192, 2998.55, 5729.11, -9928.24, -5111.93, -2107.17, 32009.06, -2189.93, -22977.37, 0.00, 0.00, 0.00
193, 3011.81, 5744.06, -10039.29, -5163.88, -2155.04, 31671.66, -2363.29, -22985.95, 0.00, 0.00, 0.00
194, 3127.97, 5851.93, -10033.45, -5085.29, -2074.98, 30590.66, -2428.94, -22865.41, 0.00, 0.00, 0.00
195, 3124.68, 5848.80, -9913.69, -5031.13, -2019.50, 30860.34, -2262.73, -22840.98, 0.05, 0.97, 0.20
196, 2996.83, 5728.44, -9894.92, -5109.83, -2096.55, 31885.05, -2186.18, -22962.86, 0.00, 0.00, 0.00
197, 2979.55, 5710.24, -10005.02, -5178.12, -2161.70, 31835.72, -2334.66, -23003.28, 0.00, 0.00, 0.00
198, 3108.43, 5827.88, -10027.95, -5112.22, -2094.60, 30681.41, -2448.19, -22890.29, 0.00, 0.00, 0.00
199, 3142.03, 5855.44, -9901.42, -5032.43, -2022.50, 30688.14, -2296.33, -22837.58, 0.00, 0.00, 0.00
200, 3039.50, 5762.93, -9831.44, -5069.26, -2063.94, 31718.71, -2173.48, -22927.77, 0.00, 0.00, 0.00
201, 2985.16, 5711.30, -9930.28, -5154.04, -2143.35, 31980.63, -2283.43, -22997.37, 0.00, 0.00, 0.00
202, 3088.14, 5803.03, -10002.79, -5125.30, -2103.54, 30849.56, -2447.27, -22910.92, 0.00, 0.00, 0.00
203, 3133.09, 5847.73, -9909.62, -5051.74, -2030.97, 30568.80, -2341.41, -22850.23, 0.00, 0.00, 0.00
204, 3057.25, 5780.59, -9816.33, -5067.68, -2051.15, 31510.79, -2192.01, -22917.49, 0.00, 0.00, 0.00
205, 2975.26, 5702.40, -9892.39, -5157.80, -2134.39, 32029.62, -2251.45, -23004.17, 0.05, 0.97, 0.20
206, 3066.50, 5788.10, -9984.99, -5141.35, -2113.85, 31018.10, -2436.76, -22930.32, 0.00, 0.00, 0.00
207, 3139.28, 5851.44, -9910.25, -5054.22, -2030.32, 30476.24, -2366.74, -22843.17, 0.00, 0.00, 0.00
208, 3065.03, 5783.18, -9818.36, -5056.70, -2035.06, 31303.82, -2209.00, -22898.29, 0.00, 0.00, 0.00
209, 2958.25, 5684.85, -9871.11, -5150.67, -2127.93, 32044.94, -2230.06, -23007.03, 0.00, 0.00, 0.00
210, 3036.75, 5758.44, -9967.96, -5149.55, -2126.70, 31218.66, -2413.52, -22950.57, 0.00, 0.00, 0.00
211, 3132.46, 5849.76, -9914.41, -5058.96, -2043.96, 30437.13, -2388.98, -22846.63, 0.00, 0.00, 0.00
212, 3093.82, 5814.52, -9796.46, -5034.71, -2024.91, 31099.10, -2221.52, -22873.23, 0.00, 0.00, 0.00
213, 2984.58, 5709.75, -9813.11, -5120.34, -2108.93, 32007.12, -2195.08, -22981.48, 0.00, 0.00, 0.00
214, 3014.47, 5734.88, -9938.46, -5164.75, -2149.61, 31439.58, -2388.80, -22974.08, 0.00, 0.00, 0.00
215, 3130.23, 5842.37, -9912.42, -5081.31, -2063.13, 30454.09, -2414.64, -22855.46, 0.06, 0.97, 0.19
216, 3115.45, 5827.93, -9791.67, -5039.07, -2014.03, 30905.62, -2245.93, -22851.42, 0.00, 0.00, 0.00
217, 3002.06, 5719.14, -9778.02, -5112.87, -2091.70, 31902.62, -2177.10, -22962.97, 0.00, 0.00, 0.00
218, 2995.25, 5714.92, -9891.52, -5177.09, -2163.96, 31626.18, -2353.91, -22993.80, 0.00, 0.00, 0.00
219, 3122.23, 5837.34, -9884.97, -5091.17, -2089.33, 30520.59, -2430.44, -22872.56, 0.00, 0.00, 0.00
220, 3133.58, 5848.65, -9749.34, -5022.95, -2025.00, 30746.05, -2262.51, -22837.49, 0.00, 0.00, 0.00
221, 3024.50, 5746.37, -9702.51, -5083.81, -2080.34, 31777.94, -2166.87, -22939.79, 0.00, 0.00, 0.00
222, 2999.65, 5725.29, -9794.24, -5153.37, -2140.96, 31802.37, -2298.47, -22980.30, 0.00, 0.00, 0.00
223, 3110.92, 5829.18, -9830.05, -5106.81, -2090.02, 30650.99, -2429.66, -22881.90, 0.00, 0.00, 0.00
224, 3140.76, 5855.73, -9716.59, -5038.64, -2018.27, 30593.70, -2289.42, -22831.23, 0.00, 0.00, 0.00
225, 3040.51, 5764.98, -9635.26, -5077.42, -2050.53, 31593.16, -2158.53, -22914.56, 0.06, 0.97, 0.19
226, 2970.86, 5697.30, -9727.72, -5171.14, -2141.77, 31902.49, -2264.88, -23001.40, 0.00, 0.00, 0.00
227, 3078.55, 5796.23, -9801.22, -5135.65, -2106.54, 30797.82, -2432.00, -22911.74, 0.00, 0.00, 0.00
228, 3129.56, 5846.01, -9701.71, -5053.66, -2025.78, 30476.58, -2325.30, -22839.03, 0.00, 0.00, 0.00
229, 3046.43, 5768.16, -9607.20, -5072.19, -2046.21, 31406.72, -2177.60, -22908.17, 0.00, 0.00, 0.00
230, 2965.52, 5696.25, -9668.60, -5156.23, -2122.28, 31981.99, -2224.89, -22997.75, 0.00, 0.00, 0.00
231, 3053.83, 5773.59, -9763.11, -5147.99, -2111.26, 31003.21, -2410.66, -22932.51, 0.00, 0.00, 0.00
232, 3139.10, 5853.23, -9680.79, -5050.89, -2023.30, 30402.26, -2340.72, -22830.12, 0.00, 0.00, 0.00
233, 3086.02, 5807.65, -9563.84, -5035.78, -2012.98, 31204.22, -2163.69, -22854.86, 0.00, 0.00, 0.00
234, 2981.19, 5708.34, -9611.99, -5132.83, -2107.28, 31991.67, -2173.42, -22967.58, 0.00, 0.00, 0.00
235, 3029.85, 5751.91, -9738.01, -5162.40, -2134.86, 31220.89, -2381.96, -22950.44, 0.05, 0.97, 0.19
236, 3139.88, 5857.03, -9691.65, -5061.80, -2042.66, 30390.57, -2366.00, -22830.41, 0.00, 0.00, 0.00
237, 3108.26, 5826.70, -9576.96, -5035.20, -2019.90, 31021.67, -2192.73, -22848.94, 0.00, 0.00, 0.00
238, 2993.26, 5721.17, -9591.18, -5121.28, -2101.82, 31947.91, -2163.00, -22963.47, 0.00, 0.00, 0.00
239, 3022.25, 5750.17, -9707.14, -5159.54, -2136.47, 31441.95, -2345.12, -22953.01, 0.00, 0.00, 0.00
240, 3136.26, 5855.20, -9697.08, -5080.93, -2052.14, 30426.58, -2384.84, -22838.83, 0.00, 0.00, 0.00
241, 3119.07, 5839.71, -9589.61, -5043.09, -2013.58, 30829.58, -2222.97, -22840.96, 0.00, 0.00, 0.00
242, 3008.99, 5740.04, -9573.16, -5107.46, -2085.93, 31841.00, -2149.72, -22947.69, 0.00, 0.00, 0.00
243, 2994.26, 5725.69, -9693.01, -5163.07, -2142.66, 31637.17, -2307.57, -22971.27, 0.00, 0.00, 0.00
244, 3111.16, 5832.75, -9719.10, -5089.92, -2074.96, 30517.39, -2401.49, -22856.11, 0.00, 0.00, 0.00
245, 3139.66, 5858.08, -9598.20, -5021.41, -2007.14, 30673.14, -2240.56, -22815.05, 0.06, 0.97, 0.18
246, 3019.90, 5753.05, -9560.85, -5083.28, -2064.97, 31700.07, -2142.33, -22922.21, 0.00, 0.00, 0.00
247, 2975.35, 5707.70, -9679.24, -5170.09, -2145.07, 31787.49, -2277.75, -22985.13, 0.00, 0.00, 0.00
248, 3091.09, 5809.98, -9744.51, -5126.53, -2097.53, 30635.70, -2420.58, -22889.55, 0.00, 0.00, 0.00
249, 3135.59, 5851.75, -9634.03, -5043.54, -2009.47, 30515.52, -2280.15, -22823.07, 0.00, 0.00, 0.00
250, 3040.04, 5764.40, -9562.01, -5076.01, -2042.37, 31503.91, -2143.22, -22904.48, 0.00, 0.00, 0.00
251, 2985.81, 5711.52, -9638.63, -5151.25, -2118.43, 31885.72, -2218.66, -22974.66, 0.00, 0.00, 0.00
252, 3085.14, 5804.77, -9715.72, -5125.63, -2087.63, 30815.90, -2387.19, -22893.19, 0.00, 0.00, 0.00
253, 3143.24, 5857.54, -9624.35, -5037.68, -2008.55, 30431.54, -2294.92, -22818.54, 0.00, 0.00, 0.00
254, 3064.45, 5787.25, -9527.99, -5042.80, -2026.01, 31334.71, -2144.02, -22888.57, 0.00, 0.00, 0.00
255, 2979.04, 5706.98, -9586.64, -5125.93, -2114.74, 31963.98, -2186.72, -22983.31, 0.06, 0.97, 0.18
0, 3072.02, 5785.95, -9689.73, -5118.35, -2106.56, 31041.63, -2372.86, -22914.54, 0.00, 0.00, 0.00
1, 3156.31, 5868.14, -9635.55, -5032.36, -2023.86, 30398.01, -2319.71, -22820.37, 0.00, 0.00, 0.00
2, 3096.36, 5817.78, -9535.61, -5030.15, -2019.86, 31147.58, -2155.09, -22862.10, 0.00, 0.00, 0.00
3, 2998.33, 5726.81, -9572.11, -5118.64, -2104.62, 31963.11, -2151.27, -22968.47, 0.00, 0.00, 0.00
4, 3053.52, 5779.83, -9689.19, -5143.56, -2128.02, 31258.64, -2342.84, -22938.79, 0.00, 0.00, 0.00
5, 3158.93, 5873.97, -9644.38, -5054.60, -2036.45, 30390.86, -2342.64, -22827.48, 0.00, 0.00, 0.00
6, 3125.49, 5839.97, -9526.96, -5029.28, -2009.82, 30972.03, -2174.96, -22846.81, 0.00, 0.00, 0.00
7, 3010.40, 5737.27, -9528.37, -5110.79, -2099.14, 31924.21, -2128.94, -22962.53, 0.00, 0.00, 0.00
8, 3030.70, 5758.01, -9644.80, -5152.39, -2146.50, 31487.13, -2308.31, -22961.30, 0.06, 0.98, 0.20
9, 3147.82, 5867.69, -9636.10, -5069.67, -2063.22, 30444.88, -2356.68, -22843.06, 0.00, 0.00, 0.00
10, 3136.89, 5856.45, -9514.85, -5025.77, -2020.40, 30793.42, -2191.25, -22836.42, 0.00, 0.00, 0.00
11, 3026.36, 5755.37, -9475.46, -5088.80, -2080.70, 31811.54, -2103.90, -22939.48, 0.00, 0.00, 0.00
12, 3008.21, 5735.08, -9594.26, -5158.83, -2147.24, 31673.83, -2261.19, -22979.02, 0.00, 0.00, 0.00
13, 3133.11, 5848.85, -9617.73, -5089.31, -2078.96, 30539.68, -2359.23, -22863.15, 0.00, 0.00, 0.00
14, 3155.49, 5872.21, -9496.50, -5020.51, -2009.38, 30645.31, -2198.90, -22818.09, 0.00, 0.00, 0.00
15, 3046.74, 5770.08, -9431.34, -5073.80, -2057.84, 31673.85, -2086.45, -22918.67, 0.00, 0.00, 0.00
16, 2997.79, 5719.59, -9530.69, -5162.27, -2140.54, 31831.14, -2211.77, -22987.40, 0.00, 0.00, 0.00
17, 3106.74, 5831.15, -9591.54, -5114.95, -2094.98, 30699.70, -2359.76, -22886.31, 0.00, 0.00, 0.00
18, 3152.67, 5869.10, -9486.75, -5036.97, -2019.75, 30530.56, -2234.26, -22825.85, 0.06, 0.97, 0.19
19, 3059.06, 5786.82, -9401.17, -5062.11, -2037.23, 31505.77, -2096.10, -22906.47, 0.00, 0.00, 0.00
20, 2985.30, 5719.68, -9480.16, -5147.20, -2123.06, 31947.32, -2170.06, -22989.91, 0.00, 0.00, 0.00
21, 3083.11, 5807.30, -9562.88, -5130.10, -2115.91, 30892.03, -2351.65, -22916.39, 0.00, 0.00, 0.00
22, 3145.02, 5863.15, -9473.03, -5053.66, -2044.20, 30438.22, -2271.92, -22841.78, 0.00, 0.00, 0.00
23, 3075.87, 5798.47, -9366.88, -5063.52, -2056.90, 31302.07, -2118.14, -22898.62, 0.00, 0.00, 0.00
24, 2990.95, 5716.66, -9408.63, -5149.22, -2140.67, 31975.09, -2141.92, -22984.46, 0.00, 0.00, 0.00
25, 3065.65, 5786.06, -9514.53, -5151.65, -2139.89, 31092.39, -2331.78, -22930.99, 0.00, 0.00, 0.00
26, 3158.66, 5874.66, -9446.83, -5055.29, -2044.42, 30391.11, -2279.79, -22820.93, 0.00, 0.00, 0.00
27, 3111.43, 5836.13, -9323.43, -5038.24, -2028.06, 31114.50, -2108.89, -22854.81, 0.00, 0.00, 0.00
28, 3004.16, 5735.88, -9342.78, -5125.55, -2113.42, 31978.19, -2095.34, -22969.26, 0.06, 0.97, 0.19
29, 3041.80, 5768.16, -9467.01, -5163.61, -2146.66, 31330.75, -2289.56, -22949.81, 0.00, 0.00, 0.00
30, 3156.71, 5869.41, -9436.37, -5072.64, -2057.52, 30415.94, -2297.67, -22829.58, 0.00, 0.00, 0.00
31, 3122.47, 5840.35, -9317.70, -5045.15, -2026.12, 30945.41, -2122.88, -22842.74, 0.00, 0.00, 0.00
32, 2998.51, 5731.68, -9313.64, -5126.55, -2104.06, 31916.88, -2072.54, -22957.97, 0.00, 0.00, 0.00
33, 3023.50, 5750.68, -9431.45, -5167.52, -2141.83, 31547.50, -2236.49, -22955.51, 0.00, 0.00, 0.00
34, 3140.91, 5857.50, -9438.40, -5092.84, -2065.12, 30474.10, -2298.63, -22841.13, 0.00, 0.00, 0.00
35, 3131.81, 5853.56, -9320.48, -5044.81, -2019.03, 30766.37, -2137.77, -22832.02, 0.00, 0.00, 0.00
36, 3020.64, 5751.26, -9283.26, -5107.69, -2077.10, 31793.19, -2050.33, -22942.08, 0.00, 0.00, 0.00
37, 2997.19, 5727.48, -9396.25, -5176.44, -2139.71, 31734.80, -2199.66, -22979.09, 0.00, 0.00, 0.00
38, 3113.55, 5837.02, -9430.36, -5119.20, -2090.13, 30592.16, -2318.19, -22872.07, 0.06, 0.97, 0.19
39, 3139.08, 5860.09, -9306.01, -5048.10, -2029.56, 30623.99, -2170.62, -22827.43, 0.00, 0.00, 0.00
40, 3038.29, 5766.59, -9234.02, -5088.37, -2069.35, 31648.93, -2041.09, -22913.42, 0.00, 0.00, 0.00
41, 2991.53, 5722.52, -9330.29, -5166.92, -2143.58, 31880.81, -2146.82, -22975.33, 0.00, 0.00, 0.00
42, 3095.60, 5817.87, -9410.78, -5134.37, -2110.61, 30751.33, -2313.05, -22892.21, 0.00, 0.00, 0.00
43, 3140.53, 5858.68, -9310.66, -5055.20, -2035.39, 30511.67, -2199.55, -22822.72, 0.00, 0.00, 0.00
44, 3052.04, 5778.75, -9225.15, -5080.64, -2061.50, 31465.51, -2059.11, -22898.24, 0.00, 0.00, 0.00
45, 2985.54, 5715.54, -9298.35, -5164.06, -2139.42, 31964.20, -2114.63, -22983.76, 0.00, 0.00, 0.00
46, 3073.05, 5797.53, -9397.21, -5153.10, -2120.24, 30943.82, -2301.02, -22915.66, 0.00, 0.00, 0.00
47, 3147.15, 5869.30, -9313.41, -5060.93, -2034.95, 30428.95, -2215.97, -22822.34, 0.00, 0.00, 0.00
48, 3082.75, 5812.53, -9199.17, -5059.67, -2034.77, 31270.94, -2046.57, -22870.17, 0.06, 0.97, 0.19
49, 2979.49, 5716.19, -9254.52, -5157.91, -2123.77, 31986.82, -2067.40, -22976.88, 0.00, 0.00, 0.00
50, 3045.89, 5775.33, -9376.11, -5172.77, -2144.69, 31147.33, -2268.48, -22937.18, 0.00, 0.00, 0.00
51, 3146.57, 5866.91, -9314.31, -5078.56, -2057.93, 30383.93, -2239.18, -22827.37, 0.00, 0.00, 0.00
52, 3096.21, 5823.19, -9192.98, -5064.52, -2040.33, 31066.49, -2067.78, -22859.33, 0.00, 0.00, 0.00
53, 2987.80, 5722.52, -9210.71, -5151.27, -2120.04, 31952.76, -2043.66, -22972.27, 0.00, 0.00, 0.00
54, 3029.76, 5760.11, -9335.63, -5182.79, -2146.80, 31358.47, -2230.19, -22953.38, 0.00, 0.00, 0.00
55, 3132.17, 5852.25, -9330.53, -5108.09, -2070.93, 30392.87, -2262.18, -22838.54, 0.00, 0.00, 0.00
56, 3119.59, 5834.10, -9207.00, -5066.58, -2031.95, 30868.96, -2093.58, -22843.13, 0.00, 0.00, 0.00
57, 3007.58, 5730.74, -9187.08, -5136.36, -2105.49, 31871.66, -2030.50, -22956.18, 0.00, 0.00, 0.00
58, 3000.19, 5730.32, -9318.71, -5197.70, -2164.12, 31576.15, -2207.77, -22980.25, 0.06, 0.97, 0.18
59, 3125.38, 5844.18, -9332.57, -5117.68, -2083.20, 30475.13, -2281.82, -22858.19, 0.00, 0.00, 0.00
60, 3132.71, 5849.59, -9204.54, -5058.87, -2024.96, 30698.29, -2115.44, -22829.11, 0.00, 0.00, 0.00
61, 3021.78, 5749.81, -9160.68, -5115.60, -2081.73, 31726.15, -2017.18, -22930.68, 0.00, 0.00, 0.00
62, 2999.58, 5726.43, -9281.36, -5183.17, -2145.12, 31731.21, -2155.94, -22974.82, 0.00, 0.00, 0.00
63, 3110.20, 5832.51, -9340.55, -5131.60, -2090.54, 30589.54, -2281.98, -22870.66, 0.00, 0.00, 0.00
64, 3123.63, 5843.04, -9240.05, -5071.41, -2041.74, 30555.86, -2155.89, -22833.13, 0.00, 0.00, 0.00
65, 3021.46, 5749.02, -9165.09, -5110.77, -2085.82, 31559.63, -2031.30, -22924.87, 0.00, 0.00, 0.00
66, 2966.43, 5701.33, -9258.79, -5190.32, -2163.36, 31857.40, -2123.10, -22996.35, 0.00, 0.00, 0.00
67, 3086.06, 5811.50, -9334.96, -5143.96, -2114.01, 30745.67, -2278.78, -22894.56, 0.00, 0.00, 0.00
68, 3142.59, 5861.92, -9235.67, -5061.93, -2025.29, 30443.25, -2167.20, -22821.89, 0.06, 0.97, 0.18
69, 3058.48, 5784.01, -9144.08, -5089.87, -2048.14, 31376.04, -2019.57, -22896.54, 0.00, 0.00, 0.00
70, 2973.09, 5705.80, -9218.75, -5186.86, -2149.81, 31933.36, -2075.34, -22988.10, 0.00, 0.00, 0.00
71, 3053.11, 5780.81, -9328.92, -5173.83, -2136.38, 30949.74, -2261.59, -22917.87, 0.00, 0.00, 0.00
72, 3121.64, 5845.45, -9254.20, -5080.66, -2045.30, 30377.90, -2192.04, -22822.45, 0.00, 0.00, 0.00
73, 3054.75, 5785.12, -9142.94, -5082.54, -2043.98, 31185.33, -2028.55, -22873.43, 0.00, 0.00, 0.00
74, 2955.59, 5691.16, -9187.01, -5176.04, -2129.94, 31950.34, -2039.10, -22983.27, 0.00, 0.00, 0.00
75, 3018.94, 5750.50, -9316.43, -5188.33, -2141.14, 31163.65, -2237.86, -22943.62, 0.00, 0.00, 0.00
76, 3116.19, 5844.18, -9273.00, -5094.16, -2049.01, 30353.65, -2223.62, -22832.66, 0.00, 0.00, 0.00
77, 3068.36, 5798.62, -9159.57, -5080.91, -2030.81, 30994.40, -2059.53, -22867.18, 0.00, 0.00, 0.00
78, 2969.94, 5707.36, -9157.31, -5157.20, -2106.50, 31914.78, -2024.33, -22972.59, 0.06, 0.97, 0.18
79, 3001.84, 5736.15, -9278.32, -5199.33, -2150.51, 31392.04, -2211.57, -22966.55, 0.00, 0.00, 0.00
80, 3117.06, 5840.38, -9276.80, -5117.97, -2072.88, 30383.60, -2249.88, -22853.18, 0.00, 0.00, 0.00
81, 3100.79, 5827.75, -9150.83, -5073.64, -2029.07, 30813.49, -2080.08, -22846.70, 0.00, 0.00, 0.00
82, 2986.62, 5719.95, -9131.78, -5147.36, -2094.22, 31828.73, -2004.86, -22956.09, 0.00, 0.00, 0.00
83, 2976.49, 5707.16, -9268.93, -5214.55, -2158.13, 31589.05, -2174.11, -22987.25, 0.00, 0.00, 0.00
84, 3091.38, 5814.60, -9304.61, -5151.36, -2095.61, 30463.71, -2269.71, -22879.33, 0.00, 0.00, 0.00
85, 3110.33, 5834.34, -9181.90, -5084.71, -2032.96, 30640.82, -2108.55, -22845.99, 0.00, 0.00, 0.00
86, 3005.42, 5744.20, -9119.71, -5129.19, -2079.32, 31685.03, -1995.92, -22939.01, 0.00, 0.00, 0.00
87, 2967.22, 5706.22, -9233.42, -5206.24, -2146.01, 31760.26, -2129.07, -22994.09, 0.00, 0.00, 0.00
88, 3089.55, 5814.63, -9294.50, -5151.90, -2096.24, 30607.43, -2266.62, -22892.01, 0.07, 0.97, 0.18
89, 3122.09, 5845.94, -9182.97, -5081.24, -2032.65, 30519.61, -2136.51, -22836.04, 0.00, 0.00, 0.00
90, 3024.17, 5758.73, -9101.94, -5119.20, -2067.34, 31529.68, -1999.63, -22918.85, 0.00, 0.00, 0.00
91, 2959.21, 5694.98, -9193.32, -5207.64, -2149.54, 31890.78, -2086.51, -22995.18, 0.00, 0.00, 0.00
92, 3061.65, 5788.90, -9289.03, -5180.55, -2120.33, 30795.52, -2262.35, -22914.05, 0.00, 0.00, 0.00
93, 3126.99, 5846.61, -9193.52, -5097.02, -2028.38, 30434.76, -2160.63, -22832.75, 0.00, 0.00, 0.00
94, 3030.78, 5758.73, -9103.73, -5127.53, -2061.97, 31355.32, -2011.03, -22903.41, 0.00, 0.00, 0.00
95, 2949.94, 5687.20, -9165.04, -5213.48, -2144.23, 31960.69, -2050.57, -22994.89, 0.00, 0.00, 0.00
96, 3043.06, 5773.77, -9277.85, -5199.10, -2128.09, 31009.60, -2240.58, -22930.41, 0.00, 0.00, 0.00
97, 3129.33, 5848.00, -9217.01, -5106.14, -2040.02, 30374.88, -2183.74, -22836.02, 0.07, 0.98, 0.18
98, 3064.89, 5793.33, -9106.70, -5102.37, -2035.51, 31155.27, -2020.75, -22881.12, 0.00, 0.00, 0.00
99, 2957.47, 5691.78, -9153.22, -5197.09, -2118.19, 31965.70, -2022.10, -22997.02, 0.00, 0.00, 0.00
100, 3025.33, 5754.19, -9281.25, -5206.26, -2130.77, 31234.53, -2214.05, -22952.11, 0.00, 0.00, 0.00
101, 3125.51, 5845.14, -9258.85, -5117.03, -2051.15, 30373.40, -2211.71, -22838.63, 0.00, 0.00, 0.00
102, 3089.53, 5811.86, -9148.48, -5086.54, -2021.40, 30965.08, -2038.32, -22851.55, 0.00, 0.00, 0.00
103, 2984.61, 5713.26, -9165.71, -5162.60, -2090.22, 31920.57, -1991.94, -22956.96, 0.00, 0.00, 0.00
104, 3003.72, 5729.49, -9338.13, -5217.05, -2138.08, 31465.80, -2185.69, -22963.31, 0.00, 0.00, 0.00
105, 3114.60, 5832.46, -9395.69, -5136.54, -2063.76, 30423.85, -2246.98, -22852.49, 0.00, 0.00, 0.00
106, 3097.53, 5823.93, -9329.15, -5086.45, -2016.37, 30796.39, -2083.23, -22842.48, 0.00, 0.00, 0.00
107, 2986.01, 5724.97, -9360.62, -5145.21, -2076.45, 31822.76, -2003.74, -22941.63, 0.07, 0.98, 0.19
108, 2975.06, 5710.51, -9552.53, -5203.98, -2134.17, 31660.31, -2165.35, -22970.46, 0.00, 0.00, 0.00
109, 3089.48, 5810.96, -9661.56, -5142.40, -2071.85, 30523.50, -2280.64, -22866.15, 0.00, 0.00, 0.00
110, 3103.72, 5827.90, -9619.23, -5077.02, -2008.71, 30643.64, -2135.96, -22829.11, 0.00, 0.00, 0.00
111, 3001.37, 5731.34, -9636.37, -5123.58, -2056.00, 31688.22, -2031.82, -22926.05, 0.00, 0.00, 0.00
112, 2950.16, 5684.72, -9814.36, -5206.26, -2134.86, 31831.01, -2165.71, -22991.00, 0.00, 0.00, 0.00
113, 3056.94, 5785.55, -9953.30, -5166.72, -2089.33, 30673.54, -2320.49, -22899.03, 0.00, 0.00, 0.00
114, 3100.75, 5823.50, -9919.91, -5090.25, -2007.30, 30515.96, -2196.55, -22831.68, 0.00, 0.00, 0.00
115, 3020.91, 5748.98, -9886.69, -5107.53, -2023.97, 31513.57, -2056.29, -22900.46, 0.00, 0.00, 0.00
116, 2951.46, 5684.29, -10004.57, -5194.28, -2123.28, 31942.63, -2148.29, -22986.91, 0.00, 0.00, 0.00
117, 3050.28, 5776.32, -10123.19, -5169.22, -2108.19, 30861.46, -2341.68, -22909.51, 0.06, 0.96, 0.20
118, 3116.68, 5841.25, -10057.21, -5074.56, -2021.76, 30429.71, -2251.20, -22824.06, 0.00, 0.00, 0.00
119, 3037.22, 5770.13, -9983.65, -5081.71, -2030.14, 31325.37, -2095.86, -22887.16, 0.00, 0.00, 0.00
120, 2961.07, 5700.66, -10047.15, -5152.73, -2100.17, 31997.10, -2126.68, -22970.71, 0.00, 0.00, 0.00
121, 3041.76, 5773.03, -10153.57, -5150.49, -2099.92, 31087.36, -2324.49, -22916.46, 0.00, 0.00, 0.00
122, 3123.92, 5845.83, -10103.41, -5068.41, -2018.83, 30396.99, -2286.72, -22826.70, 0.00, 0.00, 0.00
123, 3078.53, 5800.61, -10006.03, -5051.99, -2004.41, 31144.36, -2118.30, -22859.73, 0.00, 0.00, 0.00
124, 2967.51, 5698.00, -10042.21, -5138.96, -2095.16, 31998.51, -2112.31, -22968.63, 0.00, 0.00, 0.00
125, 3018.09, 5747.97, -10149.46, -5161.42, -2122.48, 31314.77, -2309.94, -22943.80, 0.00, 0.00, 0.00
126, 3126.74, 5846.50, -10109.85, -5069.89, -2031.04, 30395.71, -2316.00, -22827.66, 0.00, 0.00, 0.00
127, 3093.46, 5819.57, -9983.94, -5035.11, -2011.01, 30953.01, -2147.56, -22842.50, 0.06, 0.96, 0.20
128, 2979.17, 5715.74, -9977.80, -5112.72, -2093.75, 31935.46, -2100.46, -22955.08, 0.00, 0.00, 0.00
129, 3000.19, 5733.38, -10084.93, -5158.67, -2133.79, 31543.32, -2275.39, -22957.63, 0.00, 0.00, 0.00
130, 3119.12, 5844.02, -10069.62, -5078.00, -2054.13, 30475.51, -2335.76, -22838.39, 0.00, 0.00, 0.00
131, 3107.16, 5832.26, -9944.76, -5030.60, -2010.70, 30807.81, -2173.44, -22826.58, 0.00, 0.00, 0.00
132, 2984.07, 5715.18, -9922.95, -5107.46, -2087.36, 31841.98, -2096.84, -22946.28, 0.00, 0.00, 0.00
133, 2968.29, 5700.21, -10030.81, -5178.25, -2153.21, 31736.75, -2251.56, -22984.32, 0.00, 0.00, 0.00
134, 3096.48, 5820.86, -10042.39, -5104.58, -2082.62, 30579.38, -2355.27, -22863.76, 0.00, 0.00, 0.00
135, 3117.26, 5837.34, -9918.30, -5033.81, -2014.21, 30645.80, -2204.31, -22821.64, 0.00, 0.00, 0.00
136, 3023.50, 5751.08, -9855.24, -5069.31, -2049.97, 31688.60, -2080.25, -22909.78, 0.00, 0.00, 0.00
137, 2976.09, 5705.82, -9947.91, -5147.65, -2122.45, 31902.71, -2189.20, -22971.47, 0.06, 0.97, 0.20
138, 3087.80, 5805.40, -10007.26, -5110.21, -2083.76, 30751.48, -2352.01, -22882.73, 0.00, 0.00, 0.00
139, 3128.48, 5845.76, -9902.83, -5032.90, -2009.78, 30528.35, -2236.83, -22823.25, 0.00, 0.00, 0.00
140, 3043.48, 5776.52, -9811.41, -5049.57, -2024.71, 31512.63, -2086.85, -22887.92, 0.00, 0.00, 0.00
141, 2969.65, 5706.06, -9885.35, -5136.45, -2102.90, 32001.80, -2156.05, -22971.49, 0.00, 0.00, 0.00
142, 3058.75, 5790.44, -9963.38, -5120.43, -2088.37, 30947.53, -2337.55, -22900.14, 0.00, 0.00, 0.00
143, 3123.25, 5847.51, -9874.75, -5040.70, -2026.61, 30446.34, -2261.77, -22819.81, 0.00, 0.00, 0.00
144, 3053.16, 5782.60, -9769.54, -5051.47, -2038.57, 31308.89, -2111.21, -22883.65, 0.00, 0.00, 0.00
145, 2970.48, 5703.40, -9811.05, -5134.64, -2118.25, 32028.93, -2130.46, -22978.75, 0.00, 0.00, 0.00
146, 3042.94, 5770.97, -9912.84, -5140.90, -2120.71, 31171.41, -2324.18, -22927.46, 0.00, 0.00, 0.00
147, 3134.85, 5852.98, -9853.61, -5052.37, -2032.60, 30415.34, -2293.36, -22820.46, 0.06, 0.97, 0.20
148, 3080.72, 5803.54, -9752.74, -5040.74, -2024.53, 31123.08, -2132.60, -22857.38, 0.00, 0.00, 0.00
149, 2968.33, 5702.69, -9779.92, -5127.85, -2107.08, 32015.90, -2117.36, -22968.18, 0.00, 0.00, 0.00
150, 3011.70, 5742.39, -9892.79, -5155.30, -2132.18, 31392.09, -2306.28, -22941.36, 0.00, 0.00, 0.00
151, 3119.72, 5841.02, -9863.89, -5067.61, -2042.14, 30430.07, -2324.40, -22824.62, 0.00, 0.00, 0.00
152, 3104.05, 5827.70, -9739.79, -5021.45, -1996.88, 30937.76, -2146.37, -22821.78, 0.00, 0.00, 0.00
153, 2999.29, 5732.35, -9725.98, -5087.23, -2068.72, 31944.82, -2080.19, -22925.85, 0.00, 0.00, 0.00
154, 3002.02, 5736.62, -9844.62, -5143.94, -2128.98, 31619.47, -2257.46, -22943.13, 0.00, 0.00, 0.00
155, 3117.55, 5841.65, -9847.40, -5070.40, -2059.09, 30512.54, -2336.34, -22831.57, 0.00, 0.00, 0.00
156, 3115.86, 5844.18, -9727.70, -5012.29, -2007.72, 30773.72, -2175.14, -22805.35, 0.00, 0.00, 0.00
157, 3001.26, 5736.08, -9696.66, -5077.91, -2074.29, 31820.59, -2083.07, -22916.59, 0.06, 0.97, 0.19
158, 2972.40, 5704.68, -9807.86, -5152.66, -2148.96, 31785.39, -2232.87, -22966.24, 0.00, 0.00, 0.00
159, 3096.28, 5819.34, -9836.24, -5084.49, -2086.33, 30615.43, -2352.74, -22856.80, 0.00, 0.00, 0.00
160, 3124.57, 5851.13, -9716.50, -5010.19, -2015.41, 30623.99, -2208.58, -22810.27, 0.00, 0.00, 0.00
161, 3022.02, 5761.61, -9645.05, -5052.61, -2053.16, 31666.27, -2086.13, -22896.88, 0.00, 0.00, 0.00
162, 2973.01, 5713.02, -9732.15, -5133.95, -2128.38, 31938.43, -2182.80, -22963.11, 0.00, 0.00, 0.00
163, 3081.05, 5811.50, -9784.83, -5098.79, -2098.40, 30793.13, -2343.25, -22875.78, 0.00, 0.00, 0.00
164, 3130.09, 5855.75, -9673.50, -5022.39, -2029.16, 30507.22, -2233.34, -22802.67, 0.00, 0.00, 0.00
165, 3051.15, 5784.97, -9579.04, -5040.01, -2048.92, 31476.42, -2089.96, -22872.12, 0.00, 0.00, 0.00
166, 2968.67, 5713.13, -9633.20, -5131.13, -2133.00, 32028.06, -2150.06, -22968.23, 0.00, 0.00, 0.00
167, 3052.22, 5783.27, -9724.84, -5129.52, -2128.56, 31003.23, -2345.06, -22908.64, 0.05, 0.98, 0.19
168, 3134.99, 5853.32, -9637.76, -5037.28, -2044.85, 30440.73, -2273.66, -22816.57, 0.00, 0.00, 0.00
169, 3071.53, 5802.71, -9518.11, -5026.37, -2035.37, 31273.08, -2095.74, -22854.97, 0.00, 0.00, 0.00
170, 2974.75, 5715.07, -9555.68, -5112.09, -2118.03, 32038.47, -2101.62, -22953.94, 0.00, 0.00, 0.00
171, 3038.07, 5772.25, -9661.00, -5129.19, -2131.06, 31220.33, -2302.97, -22917.29, 0.00, 0.00, 0.00
172, 3130.83, 5859.98, -9607.83, -5043.81, -2040.13, 30411.27, -2283.05, -22816.55, 0.00, 0.00, 0.00
173, 3082.44, 5817.22, -9496.45, -5026.64, -2022.05, 31073.89, -2109.58, -22838.68, 0.00, 0.00, 0.00
174, 2979.35, 5719.12, -9505.48, -5104.02, -2103.50, 31996.86, -2077.84, -22943.04, 0.00, 0.00, 0.00
175, 3007.18, 5742.03, -9629.31, -5147.07, -2146.04, 31438.80, -2276.48, -22943.33, 0.00, 0.00, 0.00
176, 3117.35, 5842.21, -9617.75, -5064.55, -2066.84, 30429.51, -2309.27, -22829.60, 0.00, 0.00, 0.00
177, 3108.84, 5836.80, -9487.44, -5006.41, -2013.69, 30887.79, -2124.58, -22815.25, 0.05, 0.97, 0.20
178, 2999.54, 5735.68, -9470.52, -5075.66, -2076.81, 31912.99, -2050.28, -22919.95, 0.00, 0.00, 0.00
179, 3000.30, 5736.64, -9595.36, -5137.24, -2130.26, 31655.08, -2219.33, -22942.41, 0.00, 0.00, 0.00
180, 3110.49, 5839.19, -9618.22, -5070.67, -2065.86, 30527.74, -2313.56, -22834.43, 0.00, 0.00, 0.00
181, 3121.00, 5851.62, -9499.31, -5003.17, -2003.50, 30738.07, -2151.58, -22802.82, 0.00, 0.00, 0.00
182, 3004.16, 5748.15, -9467.28, -5064.70, -2057.86, 31790.46, -2052.09, -22911.74, 0.00, 0.00, 0.00
183, 2968.76, 5709.60, -9585.14, -5143.83, -2138.19, 31830.96, -2192.53, -22966.15, 0.00, 0.00, 0.00
184, 3083.58, 5811.14, -9638.61, -5095.21, -2099.86, 30653.74, -2335.40, -22866.46, 0.00, 0.00, 0.00
185, 3120.42, 5846.77, -9526.04, -5015.40, -2024.22, 30582.08, -2196.86, -22812.14, 0.00, 0.00, 0.00
186, 3027.41, 5763.55, -9453.92, -5047.98, -2053.21, 31603.89, -2062.40, -22893.79, 0.06, 0.97, 0.19
187, 2963.26, 5702.24, -9552.67, -5139.81, -2137.81, 31945.98, -2160.50, -22979.25, 0.00, 0.00, 0.00
188, 3075.82, 5800.55, -9631.88, -5105.21, -2103.01, 30825.09, -2326.50, -22888.54, 0.00, 0.00, 0.00
189, 3135.75, 5857.79, -9537.80, -5017.05, -2018.34, 30479.93, -2219.89, -22802.64, 0.00, 0.00, 0.00
190, 3053.11, 5784.54, -9450.67, -5033.84, -2034.14, 31425.01, -2070.02, -22874.84, 0.00, 0.00, 0.00
191, 2972.04, 5706.98, -9518.96, -5122.15, -2113.27, 32026.99, -2116.31, -22968.12, 0.00, 0.00, 0.00
192, 3062.17, 5787.27, -9618.87, -5120.54, -2107.34, 31040.74, -2309.90, -22903.07, 0.00, 0.00, 0.00
193, 3149.36, 5865.43, -9546.50, -5029.39, -2020.15, 30422.91, -2245.10, -22804.28, 0.00, 0.00, 0.00
194, 3071.58, 5794.35, -9459.84, -5039.65, -2030.16, 31234.44, -2088.19, -22863.13, 0.00, 0.00, 0.00
195, 2972.85, 5702.91, -9503.38, -5124.99, -2111.73, 32041.31, -2089.64, -22966.66, 0.00, 0.00, 0.00
196, 3031.37, 5760.89, -9626.81, -5143.34, -2123.55, 31265.80, -2281.53, -22930.47, 0.06, 0.97, 0.19
197, 3134.63, 5858.10, -9584.38, -5052.54, -2039.02, 30406.04, -2273.13, -22816.19, 0.00, 0.00, 0.00
198, 3089.15, 5819.37, -9473.76, -5031.02, -2023.66, 31030.32, -2105.94, -22837.16, 0.00, 0.00, 0.00
199, 2973.03, 5712.46, -9488.05, -5113.54, -2107.30, 31990.69, -2066.84, -22956.47, 0.00, 0.00, 0.00
200, 3006.04, 5743.01, -9607.61, -5152.23, -2140.89, 31499.15, -2250.02, -22948.15, 0.00, 0.00, 0.00
201, 3124.35, 5845.38, -9597.21, -5069.42, -2057.86, 30457.18, -2292.33, -22826.81, 0.00, 0.00, 0.00
202, 3109.55, 5827.28, -9486.48, -5024.09, -2018.18, 30858.21, -2125.74, -22820.26, 0.00, 0.00, 0.00
203, 2996.09, 5727.43, -9466.79, -5086.81, -2079.41, 31891.49, -2042.64, -22926.23, 0.00, 0.00, 0.00
204, 2991.00, 5725.09, -9578.64, -5147.52, -2134.44, 31705.57, -2199.68, -22951.87, 0.00, 0.00, 0.00
205, 3102.00, 5827.08, -9608.92, -5088.69, -2077.89, 30549.54, -2307.24, -22849.43, 0.00, 0.00, 0.00
206, 3117.35, 5843.22, -9481.86, -5017.05, -2011.93, 30693.50, -2144.34, -22809.08, 0.06, 0.97, 0.19
207, 3010.13, 5747.82, -9423.74, -5066.31, -2060.74, 31746.47, -2031.73, -22907.59, 0.00, 0.00, 0.00
208, 2967.95, 5709.60, -9529.87, -5150.47, -2130.99, 31866.84, -2162.24, -22969.59, 0.00, 0.00, 0.00
209, 3077.79, 5809.24, -9590.60, -5113.68, -2092.30, 30692.36, -2317.99, -22880.65, 0.00, 0.00, 0.00
210, 3113.67, 5841.20, -9481.30, -5042.40, -2029.85, 30558.10, -2191.57, -22819.77, 0.00, 0.00, 0.00
211, 3036.57, 5768.94, -9387.29, -5062.31, -2051.29, 31569.13, -2042.59, -22885.21, 0.00, 0.00, 0.00
212, 2958.63, 5695.49, -9467.21, -5160.50, -2141.95, 31974.24, -2125.18, -22972.92, 0.00, 0.00, 0.00
213, 3052.67, 5783.07, -9552.38, -5141.15, -2119.21, 30865.25, -2307.12, -22898.56, 0.00, 0.00, 0.00
214, 3117.76, 5841.27, -9458.72, -5057.17, -2038.08, 30444.95, -2217.23, -22821.38, 0.00, 0.00, 0.00
215, 3051.15, 5780.74, -9350.92, -5060.48, -2043.17, 31358.80, -2054.26, -22876.54, 0.00, 0.00, 0.00
216, 2959.84, 5698.26, -9401.70, -5148.63, -2124.09, 32023.63, -2087.85, -22972.07, 0.06, 0.97, 0.19
217, 3033.58, 5770.53, -9507.52, -5155.47, -2120.98, 31081.93, -2294.09, -22923.10, 0.00, 0.00, 0.00
218, 3121.04, 5848.71, -9440.68, -5065.71, -2039.84, 30399.18, -2248.50, -22826.52, 0.00, 0.00, 0.00
219, 3058.70, 5792.48, -9332.21, -5054.85, -2036.67, 31173.26, -2082.76, -22867.55, 0.00, 0.00, 0.00
220, 2959.73, 5699.83, -9353.27, -5132.61, -2123.44, 32030.94, -2073.48, -22970.84, 0.00, 0.00, 0.00
221, 3012.37, 5749.23, -9472.80, -5159.27, -2152.18, 31321.52, -2274.56, -22945.45, 0.00, 0.00, 0.00
222, 3121.96, 5850.66, -9436.73, -5067.07, -2065.08, 30410.33, -2275.01, -22834.32, 0.00, 0.00, 0.00
223, 3092.63, 5827.68, -9310.40, -5028.94, -2031.15, 30989.31, -2097.40, -22842.88, 0.00, 0.00, 0.00
224, 2977.65, 5720.73, -9305.08, -5107.69, -2108.02, 31972.92, -2045.72, -22954.03, 0.00, 0.00, 0.00
225, 2990.33, 5730.25, -9432.68, -5164.30, -2157.64, 31542.24, -2233.10, -22965.03, 0.00, 0.00, 0.00
226, 3121.62, 5849.74, -9414.87, -5072.75, -2066.62, 30464.71, -2278.09, -22835.68, 0.06, 0.97, 0.19
227, 3107.85, 5835.62, -9293.79, -5028.85, -2025.60, 30815.03, -2115.03, -22827.28, 0.00, 0.00, 0.00
228, 2990.98, 5727.81, -9260.60, -5096.91, -2094.31, 31858.90, -2037.67, -22944.22, 0.00, 0.00, 0.00
229, 2979.17, 5715.63, -9379.66, -5161.20, -2156.03, 31734.25, -2196.46, -22985.06, 0.00, 0.00, 0.00
230, 3106.31, 5832.33, -9411.72, -5092.06, -2082.00, 30569.90, -2298.07, -22862.50, 0.00, 0.00, 0.00
231, 3137.58, 5858.93, -9269.13, -5014.84, -2010.32, 30659.55, -2133.97, -22810.04, 0.00, 0.00, 0.00
232, 3023.25, 5751.48, -9206.24, -5072.46, -2073.73, 31711.71, -2022.21, -22910.96, 0.00, 0.00, 0.00
233, 2978.48, 5709.46, -9306.51, -5156.57, -2149.95, 31889.81, -2139.96, -22976.56, 0.00, 0.00, 0.00
234, 3092.56, 5824.15, -9369.45, -5110.48, -2099.97, 30734.86, -2287.12, -22874.28, 0.00, 0.00, 0.00
235, 3133.51, 5860.11, -9265.36, -5035.76, -2026.10, 30541.58, -2165.19, -22811.99, 0.00, 0.00, 0.00
236, 3042.30, 5775.42, -9179.17, -5067.01, -2055.56, 31536.50, -2026.39, -22892.83, 0.06, 0.97, 0.19
237, 2964.87, 5703.79, -9264.26, -5158.83, -2139.93, 31998.71, -2101.49, -22980.10, 0.00, 0.00, 0.00
238, 3063.64, 5792.16, -9361.07, -5140.19, -2115.23, 30916.37, -2282.94, -22902.24, 0.00, 0.00, 0.00
239, 3137.74, 5859.82, -9273.16, -5052.57, -2031.53, 30439.72, -2194.43, -22813.62, 0.00, 0.00, 0.00
240, 3061.76, 5792.36, -9165.09, -5064.68, -2042.37, 31337.61, -2038.46, -22876.23, 0.00, 0.00, 0.00
241, 2966.03, 5702.42, -9217.64, -5154.83, -2127.82, 32050.59, -2063.60, -22975.89, 0.00, 0.00, 0.00
242, 3043.06, 5775.71, -9327.99, -5156.86, -2126.70, 31155.16, -2253.64, -22921.54, 0.00, 0.00, 0.00
243, 3131.23, 5861.05, -9272.69, -5069.91, -2033.09, 30417.08, -2216.94, -22821.96, 0.00, 0.00, 0.00
244, 3075.69, 5809.15, -9155.39, -5058.85, -2023.48, 31149.79, -2047.58, -22855.80, 0.00, 0.00, 0.00
245, 2970.19, 5703.90, -9178.56, -5145.48, -2115.59, 32035.32, -2034.88, -22963.87, 0.00, 0.00, 0.00
246, 3015.16, 5752.69, -9299.22, -5167.12, -2136.20, 31383.61, -2224.53, -22938.97, 0.06, 0.97, 0.19
247, 3130.09, 5853.39, -9280.35, -5079.03, -2051.40, 30432.73, -2238.46, -22824.57, 0.00, 0.00, 0.00
248, 3110.63, 5837.18, -9151.63, -5037.66, -2013.85, 30960.12, -2062.17, -22826.61, 0.00, 0.00, 0.00
249, 3005.55, 5745.54, -9131.85, -5103.10, -2081.22, 31968.00, -1999.97, -22934.39, 0.00, 0.00, 0.00
250, 3012.72, 5749.49, -9266.45, -5160.15, -2135.84, 31613.05, -2180.26, -22952.18, 0.00, 0.00, 0.00
251, 3123.68, 5850.93, -9288.63, -5090.86, -2067.38, 30499.56, -2258.58, -22844.91, 0.00, 0.00, 0.00
252, 3125.27, 5856.96, -9159.88, -5031.13, -2010.99, 30788.45, -2089.53, -22821.11, 0.00, 0.00, 0.00
253, 3010.20, 5748.44, -9118.93, -5095.19, -2071.83, 31846.72, -1994.96, -22926.23, 0.00, 0.00, 0.00
254, 2975.08, 5713.98, -9252.57, -5175.50, -2149.32, 31785.45, -2149.41, -22977.77, 0.00, 0.00, 0.00
255, 3098.58, 5829.20, -9300.92, -5112.02, -2077.19, 30599.04, -2262.78, -22866.66, 0.00, 0.00, 0.00
0, 3131.84, 5855.33, -9184.98, -5037.23, -1999.61, 30619.38, -2109.65, -22815.05, 0.06, 0.96, 0.19
1, 3035.26, 5768.98, -9107.49, -5076.93, -2042.95, 31671.44, -1982.40, -22896.68, 0.00, 0.00, 0.00
2, 2977.32, 5716.82, -9208.02, -5168.28, -2134.19, 31929.78, -2098.74, -22973.81, 0.00, 0.00, 0.00
3, 3084.41, 5810.98, -9295.87, -5136.90, -2097.87, 30779.07, -2265.22, -22884.74, 0.00, 0.00, 0.00
4, 3144.51, 5862.62, -9195.31, -5053.71, -2014.36, 30512.99, -2145.79, -22814.45, 0.00, 0.00, 0.00
5, 3064.25, 5791.98, -9093.25, -5068.35, -2036.22, 31493.12, -1989.42, -22881.48, 0.00, 0.00, 0.00
6, 2981.03, 5712.86, -9167.88, -5163.72, -2127.95, 32026.72, -2055.71, -22973.19, 0.00, 0.00, 0.00
7, 3070.57, 5796.21, -9277.18, -5155.18, -2115.75, 30983.67, -2250.57, -22905.20, 0.00, 0.00, 0.00
8, 3144.35, 5860.67, -9206.75, -5075.72, -2029.25, 30442.81, -2179.54, -22819.99, 0.00, 0.00, 0.00
9, 3072.65, 5798.29, -9104.33, -5078.70, -2032.27, 31295.32, -2018.56, -22872.27, 0.06, 0.97, 0.19
10, 2978.24, 5712.73, -9142.51, -5159.88, -2115.48, 32044.78, -2028.40, -22972.14, 0.00, 0.00, 0.00
11, 3043.08, 5768.67, -9271.01, -5179.23, -2129.07, 31190.76, -2233.45, -22935.33, 0.00, 0.00, 0.00
12, 3136.08, 5852.29, -9234.33, -5091.57, -2039.40, 30393.48, -2210.65, -22831.72, 0.00, 0.00, 0.00
13, 3086.15, 5810.25, -9109.16, -5071.05, -2025.38, 31085.11, -2039.75, -22860.20, 0.00, 0.00, 0.00
14, 2975.46, 5703.92, -9118.77, -5158.38, -2117.76, 32009.80, -2021.22, -22973.73, 0.00, 0.00, 0.00
15, 3023.36, 5746.30, -9247.16, -5186.70, -2147.60, 31423.18, -2211.91, -22954.10, 0.00, 0.00, 0.00
16, 3140.93, 5852.20, -9230.51, -5096.20, -2058.80, 30434.11, -2234.97, -22833.80, 0.00, 0.00, 0.00
17, 3119.72, 5830.21, -9101.79, -5056.17, -2022.03, 30919.28, -2062.42, -22838.79, 0.00, 0.00, 0.00
18, 3008.39, 5732.37, -9074.38, -5124.90, -2088.17, 31941.78, -1994.47, -22945.09, 0.00, 0.00, 0.00
19, 3001.93, 5731.34, -9206.04, -5192.35, -2145.79, 31644.46, -2173.08, -22968.74, 0.07, 0.97, 0.18
20, 3125.29, 5849.88, -9230.85, -5117.95, -2070.46, 30503.40, -2254.11, -22847.93, 0.00, 0.00, 0.00
21, 3129.47, 5851.55, -9101.58, -5060.75, -2014.27, 30735.03, -2088.99, -22821.15, 0.00, 0.00, 0.00
22, 3016.59, 5744.58, -9050.71, -5119.94, -2070.31, 31795.11, -1988.14, -22930.56, 0.00, 0.00, 0.00
23, 2992.88, 5724.46, -9166.09, -5191.51, -2134.30, 31814.44, -2127.13, -22980.99, 0.00, 0.00, 0.00
24, 3113.58, 5833.72, -9227.49, -5132.74, -2081.75, 30650.92, -2260.43, -22872.67, 0.00, 0.00, 0.00
25, 3153.45, 5869.86, -9103.78, -5047.72, -2012.19, 30622.85, -2116.08, -22816.17, 0.00, 0.00, 0.00
26, 3057.23, 5781.68, -9011.75, -5081.53, -2046.97, 31665.71, -1981.71, -22898.06, 0.00, 0.00, 0.00
27, 2992.85, 5719.61, -9107.98, -5173.89, -2134.64, 31987.54, -2084.55, -22978.13, 0.00, 0.00, 0.00
28, 3094.00, 5814.40, -9200.40, -5146.31, -2113.33, 30842.43, -2258.84, -22895.38, 0.00, 0.00, 0.00
29, 3149.47, 5867.76, -9108.02, -5063.25, -2027.12, 30514.56, -2147.98, -22818.92, 0.07, 0.97, 0.18
30, 3061.29, 5789.50, -9019.98, -5089.74, -2047.82, 31468.06, -1997.69, -22891.27, 0.00, 0.00, 0.00
31, 2970.17, 5707.94, -9097.03, -5185.60, -2139.53, 32038.27, -2054.68, -22986.58, 0.00, 0.00, 0.00
32, 3060.36, 5793.04, -9218.84, -5176.46, -2125.90, 31022.01, -2244.07, -22916.46, 0.00, 0.00, 0.00
33, 3142.57, 5861.88, -9158.34, -5087.86, -2032.15, 30427.18, -2178.18, -22822.11, 0.00, 0.00, 0.00
34, 3079.58, 5805.71, -9052.12, -5085.89, -2023.37, 31245.97, -2015.39, -22871.13, 0.00, 0.00, 0.00
35, 2988.88, 5725.33, -9083.99, -5164.44, -2101.58, 32038.12, -2015.05, -22964.54, 0.00, 0.00, 0.00
36, 3039.52, 5768.40, -9236.30, -5192.15, -2129.92, 31247.20, -2223.15, -22936.06, 0.00, 0.00, 0.00
37, 3144.35, 5862.62, -9225.88, -5099.71, -2040.13, 30400.65, -2212.93, -22825.91, 0.00, 0.00, 0.00
38, 3102.24, 5826.54, -9129.82, -5074.63, -2017.45, 31050.95, -2041.25, -22845.70, 0.00, 0.00, 0.00
39, 2995.78, 5731.97, -9167.50, -5147.20, -2089.26, 32003.45, -2002.25, -22946.61, 0.06, 0.97, 0.19
40, 3030.83, 5766.06, -9341.11, -5176.64, -2120.87, 31486.25, -2193.64, -22936.26, 0.00, 0.00, 0.00
41, 3143.75, 5866.04, -9400.50, -5086.32, -2039.53, 30453.65, -2240.23, -22819.99, 0.00, 0.00, 0.00
42, 3129.56, 5846.19, -9345.38, -5039.96, -1997.73, 30880.34, -2073.64, -22815.47, 0.00, 0.00, 0.00
43, 3001.88, 5740.62, -9398.80, -5111.98, -2067.40, 31912.70, -2007.14, -22931.53, 0.00, 0.00, 0.00
44, 2998.26, 5738.65, -9592.34, -5174.99, -2119.91, 31683.73, -2176.66, -22955.29, 0.00, 0.00, 0.00
45, 3116.70, 5842.95, -9694.96, -5111.42, -2052.69, 30531.72, -2282.25, -22854.03, 0.00, 0.00, 0.00
46, 3129.49, 5859.93, -9650.79, -5044.59, -1980.28, 30707.07, -2131.98, -22824.42, 0.00, 0.00, 0.00
47, 3030.40, 5766.50, -9663.89, -5086.34, -2031.51, 31775.53, -2015.95, -22906.00, 0.00, 0.00, 0.00
48, 2993.77, 5725.78, -9830.70, -5162.18, -2116.51, 31867.53, -2161.64, -22964.16, 0.00, 0.00, 0.00
49, 3100.39, 5829.85, -9941.76, -5117.88, -2075.61, 30684.03, -2321.54, -22873.34, 0.06, 0.97, 0.19
50, 3127.03, 5857.90, -9881.62, -5042.69, -2007.16, 30574.19, -2198.65, -22823.50, 0.00, 0.00, 0.00
51, 3017.40, 5752.31, -9854.79, -5084.80, -2052.47, 31586.05, -2084.37, -22920.84, 0.00, 0.00, 0.00
52, 2947.73, 5682.84, -9973.71, -5171.99, -2137.59, 31957.88, -2185.02, -23004.73, 0.00, 0.00, 0.00
53, 3050.48, 5775.82, -10084.01, -5147.14, -2111.93, 30833.65, -2358.65, -22923.88, 0.00, 0.00, 0.00
54, 3119.21, 5841.38, -9999.39, -5055.38, -2018.97, 30446.52, -2247.20, -22836.17, 0.00, 0.00, 0.00
55, 3014.67, 5746.57, -9940.09, -5089.49, -2056.45, 31371.59, -2118.86, -22920.44, 0.00, 0.00, 0.00
56, 2914.78, 5649.69, -10028.40, -5195.91, -2160.61, 31994.60, -2178.74, -23031.88, 0.00, 0.00, 0.00
57, 3008.28, 5739.32, -10120.47, -5183.26, -2142.57, 31029.00, -2360.39, -22961.74, 0.00, 0.00, 0.00
58, 3115.94, 5840.20, -10027.69, -5066.78, -2034.72, 30387.22, -2283.25, -22839.44, 0.00, 0.00, 0.00
59, 3066.97, 5794.33, -9906.36, -5043.74, -2024.53, 31194.23, -2109.09, -22872.74, 0.06, 0.97, 0.19
60, 2974.48, 5711.79, -9919.57, -5116.74, -2099.70, 32051.93, -2091.41, -22966.35, 0.00, 0.00, 0.00
61, 3034.61, 5765.59, -10019.71, -5130.75, -2114.68, 31318.35, -2286.67, -22929.56, 0.00, 0.00, 0.00
62, 3137.11, 5857.65, -9974.89, -5047.11, -2033.58, 30422.94, -2293.02, -22824.68, 0.00, 0.00, 0.00
63, 3102.44, 5824.48, -9850.10, -5023.06, -2009.44, 31020.31, -2122.75, -22843.71, 0.00, 0.00, 0.00
64, 2980.74, 5722.99, -9827.61, -5101.45, -2082.89, 31999.47, -2072.23, -22954.17, 0.00, 0.00, 0.00
65, 3007.38, 5741.94, -9935.62, -5147.58, -2122.23, 31548.30, -2257.44, -22956.80, 0.00, 0.00, 0.00
66, 3127.70, 5849.21, -9922.41, -5063.94, -2037.36, 30483.44, -2305.43, -22837.34, 0.00, 0.00, 0.00
67, 3112.61, 5835.97, -9803.52, -5017.03, -1988.77, 30852.36, -2138.70, -22826.05, 0.00, 0.00, 0.00
68, 2998.31, 5731.05, -9779.11, -5083.23, -2047.69, 31897.68, -2058.95, -22937.63, 0.00, 0.00, 0.00
69, 2985.59, 5716.88, -9886.85, -5147.52, -2114.41, 31743.43, -2221.76, -22971.02, 0.06, 0.98, 0.20
70, 3103.52, 5824.15, -9902.65, -5081.22, -2066.24, 30571.82, -2330.19, -22854.61, 0.00, 0.00, 0.00
71, 3136.73, 5857.41, -9765.57, -4999.84, -1990.18, 30686.15, -2162.73, -22803.07, 0.00, 0.00, 0.00
72, 3032.51, 5763.69, -9704.72, -5048.14, -2038.30, 31751.57, -2044.38, -22898.87, 0.00, 0.00, 0.00
73, 2989.75, 5722.56, -9803.34, -5128.92, -2116.42, 31910.60, -2170.04, -22962.26, 0.00, 0.00, 0.00
74, 3093.24, 5819.23, -9863.24, -5094.34, -2078.47, 30731.50, -2327.13, -22873.43, 0.00, 0.00, 0.00
75, 3131.05, 5852.83, -9757.77, -5022.66, -2000.68, 30557.05, -2200.73, -22814.76, 0.00, 0.00, 0.00
76, 3033.85, 5763.31, -9679.51, -5055.32, -2028.96, 31568.24, -2061.21, -22897.77, 0.00, 0.00, 0.00
77, 2968.71, 5699.52, -9756.20, -5136.94, -2109.09, 32012.75, -2132.85, -22971.24, 0.00, 0.00, 0.00
78, 3069.88, 5795.67, -9839.01, -5115.55, -2084.99, 30917.13, -2312.96, -22891.70, 0.00, 0.00, 0.00
79, 3143.50, 5862.12, -9749.29, -5026.50, -1996.86, 30464.82, -2223.17, -22806.87, 0.06, 0.98, 0.20
80, 3072.38, 5793.48, -9645.05, -5027.29, -1992.61, 31378.74, -2052.20, -22856.20, 0.00, 0.00, 0.00
81, 2972.38, 5710.45, -9697.37, -5113.48, -2078.02, 32073.59, -2081.46, -22950.66, 0.00, 0.00, 0.00
82, 3048.02, 5776.50, -9806.69, -5125.99, -2094.38, 31149.44, -2288.57, -22909.78, 0.00, 0.00, 0.00
83, 3142.97, 5862.84, -9742.83, -5035.49, -2012.35, 30432.93, -2248.83, -22807.76, 0.00, 0.00, 0.00
84, 3081.77, 5805.91, -9643.75, -5027.51, -2010.79, 31187.97, -2085.40, -22848.22, 0.00, 0.00, 0.00
85, 2986.55, 5721.51, -9666.97, -5101.41, -2081.86, 32058.19, -2066.31, -22946.32, 0.00, 0.00, 0.00
86, 3041.71, 5776.43, -9771.82, -5119.38, -2097.96, 31374.81, -2254.98, -22915.66, 0.00, 0.00, 0.00
87, 3146.25, 5870.13, -9737.87, -5033.25, -2013.38, 30438.11, -2269.77, -22808.48, 0.00, 0.00, 0.00
88, 3117.69, 5843.51, -9615.09, -4996.93, -1976.56, 30996.82, -2096.86, -22820.33, 0.00, 0.00, 0.00
89, 2998.24, 5732.82, -9619.18, -5076.77, -2065.28, 31997.71, -2047.02, -22936.62, 0.06, 0.97, 0.19
90, 3016.37, 5750.63, -9740.69, -5126.17, -2108.04, 31595.96, -2227.49, -22945.12, 0.00, 0.00, 0.00
91, 3129.98, 5851.11, -9740.58, -5053.93, -2031.30, 30496.12, -2293.53, -22832.96, 0.00, 0.00, 0.00
92, 3123.05, 5844.24, -9609.73, -5002.21, -1979.40, 30817.38, -2127.26, -22809.20, 0.00, 0.00, 0.00
93, 3007.11, 5739.37, -9565.12, -5066.60, -2037.88, 31876.47, -2034.10, -22912.86, 0.00, 0.00, 0.00
94, 2991.76, 5726.96, -9670.64, -5135.60, -2095.70, 31787.29, -2178.76, -22950.79, 0.00, 0.00, 0.00
95, 3120.59, 5851.57, -9690.13, -5067.12, -2035.55, 30606.64, -2291.81, -22839.82, 0.00, 0.00, 0.00
96, 3141.40, 5866.28, -9567.42, -5000.11, -1985.68, 30658.59, -2150.95, -22803.16, 0.00, 0.00, 0.00
97, 3029.06, 5765.43, -9506.00, -5050.82, -2040.78, 31714.38, -2035.33, -22902.33, 0.00, 0.00, 0.00
98, 2983.60, 5724.24, -9597.48, -5135.76, -2120.93, 31940.17, -2150.71, -22970.15, 0.06, 0.98, 0.20
99, 3097.73, 5828.42, -9656.67, -5098.08, -2078.18, 30765.65, -2306.79, -22871.29, 0.00, 0.00, 0.00
100, 3144.87, 5871.15, -9538.18, -5018.17, -1997.40, 30534.09, -2183.18, -22802.56, 0.00, 0.00, 0.00
101, 3058.66, 5795.94, -9434.87, -5035.60, -2007.57, 31531.00, -2028.69, -22869.52, 0.00, 0.00, 0.00
102, 2985.32, 5728.15, -9498.96, -5124.81, -2084.64, 32037.56, -2089.31, -22951.66, 0.00, 0.00, 0.00
103, 3075.18, 5800.86, -9597.08, -5119.62, -2077.21, 30979.36, -2285.20, -22885.95, 0.00, 0.00, 0.00
104, 3143.86, 5868.72, -9511.09, -5027.73, -1986.85, 30470.46, -2204.04, -22795.52, 0.00, 0.00, 0.00
105, 3065.81, 5805.44, -9403.29, -5029.28, -1984.16, 31354.96, -2040.09, -22847.13, 0.00, 0.00, 0.00
106, 2971.26, 5717.58, -9446.81, -5117.07, -2073.26, 32089.15, -2063.33, -22946.88, 0.00, 0.00, 0.00
107, 3036.89, 5772.85, -9560.62, -5132.90, -2093.78, 31206.88, -2268.05, -22910.00, 0.00, 0.00, 0.00
108, 3134.32, 5860.05, -9503.76, -5037.66, -2013.40, 30433.49, -2235.62, -22803.61, 0.06, 0.98, 0.19
109, 3102.71, 5834.16, -9372.89, -5003.30, -1988.90, 31150.98, -2055.00, -22819.25, 0.00, 0.00, 0.00
110, 2995.89, 5738.05, -9384.02, -5080.64, -2068.79, 32066.57, -2031.10, -22929.83, 0.00, 0.00, 0.00
111, 3028.86, 5769.19, -9515.74, -5119.94, -2109.33, 31446.18, -2232.02, -22923.97, 0.00, 0.00, 0.00
112, 3139.37, 5870.48, -9497.73, -5036.99, -2028.44, 30464.60, -2259.16, -22813.13, 0.00, 0.00, 0.00
113, 3111.07, 5841.36, -9386.93, -5004.31, -1995.25, 30971.38, -2091.61, -22823.43, 0.00, 0.00, 0.00
114, 2998.87, 5740.78, -9374.90, -5071.48, -2057.34, 31997.35, -2019.39, -22922.67, 0.00, 0.00, 0.00
115, 3001.01, 5738.30, -9505.57, -5135.25, -2109.24, 31678.99, -2191.05, -22938.90, 0.00, 0.00, 0.00
116, 3115.90, 5837.76, -9532.73, -5065.62, -2037.76, 30550.61, -2274.27, -22829.87, 0.00, 0.00, 0.00
117, 3120.50, 5846.39, -9408.07, -4995.59, -1964.52, 30810.78, -2100.77, -22793.88, 0.00, 0.00, 0.00
118, 3015.09, 5751.51, -9364.53, -5053.60, -2019.19, 31872.60, -1998.83, -22893.13, 0.06, 0.97, 0.19
119, 2995.42, 5735.08, -9477.56, -5123.82, -2089.71, 31854.99, -2142.73, -22937.05, 0.00, 0.00, 0.00
120, 3109.37, 5839.71, -9528.12, -5073.31, -2037.90, 30670.91, -2269.84, -22833.71, 0.00, 0.00, 0.00
121, 3138.72, 5860.16, -9419.11, -5002.57, -1970.71, 30660.96, -2127.42, -22787.16, 0.00, 0.00, 0.00
122, 3039.03, 5769.61, -9353.22, -5037.26, -2007.68, 31707.36, -1996.86, -22869.88, 0.00, 0.00, 0.00
123, 2976.34, 5710.78, -9454.52, -5123.51, -2093.35, 32000.41, -2104.24, -22948.51, 0.00, 0.00, 0.00
124, 3078.64, 5804.28, -9540.82, -5099.48, -2065.79, 30844.56, -2283.45, -22868.87, 0.00, 0.00, 0.00
125, 3140.44, 5865.95, -9442.87, -5010.86, -1973.12, 30544.96, -2164.68, -22784.90, 0.00, 0.00, 0.00
126, 3064.98, 5786.73, -9352.15, -5027.62, -1997.91, 31515.31, -2008.71, -22849.23, 0.00, 0.00, 0.00
127, 2974.06, 5705.55, -9432.99, -5120.31, -2091.70, 32075.89, -2068.34, -22949.07, 0.00, 0.00, 0.00
128, 3052.24, 5784.12, -9549.25, -5118.82, -2089.71, 31049.30, -2276.61, -22890.22, 0.07, 0.97, 0.20
129, 3143.42, 5871.04, -9468.27, -5020.18, -1993.02, 30476.22, -2199.39, -22788.25, 0.00, 0.00, 0.00
130, 3075.18, 5810.13, -9367.77, -5020.27, -1989.77, 31324.49, -2030.90, -22840.73, 0.00, 0.00, 0.00
131, 2982.08, 5723.39, -9409.44, -5105.72, -2074.67, 32103.09, -2040.76, -22943.75, 0.00, 0.00, 0.00
132, 3054.57, 5790.87, -9517.95, -5114.93, -2086.69, 31276.44, -2239.78, -22898.49, 0.00, 0.00, 0.00
133, 3152.00, 5880.61, -9463.08, -5022.17, -2002.63, 30455.03, -2218.99, -22790.31, 0.00, 0.00, 0.00
134, 3099.54, 5831.73, -9347.92, -5004.94, -1992.90, 31124.38, -2049.41, -22826.29, 0.00, 0.00, 0.00
135, 2987.40, 5728.64, -9355.59, -5084.93, -2070.80, 32051.69, -2017.69, -22934.28, 0.00, 0.00, 0.00
136, 3032.42, 5769.21, -9469.83, -5112.87, -2092.10, 31490.23, -2199.75, -22915.57, 0.00, 0.00, 0.00
137, 3142.28, 5870.66, -9455.97, -5031.69, -2010.41, 30472.20, -2234.75, -22801.84, 0.00, 0.00, 0.00
138, 3125.76, 5858.73, -9325.24, -4986.38, -1963.71, 30929.29, -2058.42, -22789.66, 0.06, 0.97, 0.20
139, 3001.71, 5743.39, -9308.27, -5064.59, -2040.13, 31970.71, -1995.94, -22909.29, 0.00, 0.00, 0.00
140, 2999.58, 5740.55, -9433.13, -5131.16, -2098.43, 31709.84, -2168.30, -22934.77, 0.00, 0.00, 0.00
141, 3127.93, 5858.73, -9450.92, -5058.76, -2020.69, 30560.53, -2254.20, -22814.56, 0.00, 0.00, 0.00
142, 3140.24, 5866.71, -9316.07, -4992.17, -1956.09, 30763.40, -2092.01, -22783.06, 0.00, 0.00, 0.00
143, 3021.06, 5755.84, -9265.47, -5050.11, -2013.53, 31826.83, -1987.87, -22885.44, 0.00, 0.00, 0.00
144, 2985.12, 5721.67, -9376.47, -5129.93, -2083.65, 31877.74, -2124.24, -22942.86, 0.00, 0.00, 0.00
145, 3106.04, 5835.30, -9425.48, -5079.30, -2032.49, 30690.20, -2262.13, -22841.40, 0.00, 0.00, 0.00
146, 3132.51, 5860.02, -9318.71, -5012.69, -1973.10, 30621.17, -2135.28, -22795.78, 0.00, 0.00, 0.00
147, 3037.27, 5774.62, -9242.36, -5045.59, -2015.90, 31656.57, -2003.90, -22880.85, 0.00, 0.00, 0.00
148, 2987.85, 5729.06, -9318.35, -5115.49, -2096.44, 32006.87, -2088.26, -22944.67, 0.06, 0.97, 0.20
149, 3094.24, 5826.32, -9398.01, -5084.37, -2069.59, 30873.08, -2261.91, -22857.54, 0.00, 0.00, 0.00
150, 3156.74, 5881.48, -9302.53, -5002.52, -1983.96, 30510.89, -2157.37, -22782.84, 0.00, 0.00, 0.00
151, 3072.58, 5802.13, -9205.05, -5023.02, -1997.66, 31451.61, -2003.14, -22855.37, 0.00, 0.00, 0.00
152, 2978.88, 5721.35, -9268.64, -5117.92, -2086.98, 32067.60, -2052.81, -22949.96, 0.00, 0.00, 0.00
153, 3053.76, 5787.49, -9381.94, -5126.10, -2090.20, 31080.35, -2258.91, -22900.70, 0.00, 0.00, 0.00
154, 3142.16, 5865.92, -9307.53, -5034.66, -1997.22, 30436.28, -2200.02, -22802.24, 0.00, 0.00, 0.00
155, 3085.35, 5815.54, -9179.57, -5021.41, -1991.45, 31246.04, -2023.97, -22837.94, 0.00, 0.00, 0.00
156, 2977.57, 5715.65, -9210.46, -5117.70, -2089.46, 32068.25, -2030.54, -22955.96, 0.00, 0.00, 0.00
157, 3040.82, 5768.81, -9333.42, -5137.68, -2105.67, 31297.56, -2234.62, -22928.93, 0.00, 0.00, 0.00
158, 3143.42, 5866.95, -9283.28, -5038.69, -2005.71, 30428.12, -2217.43, -22810.11, 0.06, 0.97, 0.19
159, 3095.34, 5822.12, -9158.90, -5020.54, -1986.00, 31058.96, -2044.67, -22836.33, 0.00, 0.00, 0.00
160, 2990.15, 5719.23, -9157.15, -5099.98, -2060.65, 32024.44, -2001.22, -22937.05, 0.00, 0.00, 0.00
161, 3016.23, 5743.55, -9286.52, -5147.94, -2099.59, 31530.69, -2188.62, -22934.61, 0.00, 0.00, 0.00
162, 3123.28, 5842.92, -9287.57, -5074.85, -2022.27, 30470.79, -2240.27, -22825.56, 0.00, 0.00, 0.00
163, 3108.08, 5826.09, -9162.45, -5033.32, -1974.87, 30861.92, -2072.54, -22821.31, 0.00, 0.00, 0.00
164, 2993.43, 5721.06, -9129.55, -5100.15, -2046.06, 31916.55, -1991.23, -22923.88, 0.00, 0.00, 0.00
165, 2982.08, 5713.53, -9252.66, -5166.65, -2105.78, 31731.38, -2152.88, -22953.47, 0.00, 0.00, 0.00
166, 3101.22, 5825.56, -9284.74, -5100.06, -2037.50, 30562.41, -2255.76, -22843.35, 0.00, 0.00, 0.00
167, 3127.14, 5850.32, -9152.61, -5021.27, -1956.14, 30699.92, -2083.00, -22793.21, 0.00, 0.00, 0.00
168, 3018.11, 5749.85, -9087.03, -5071.45, -2013.11, 31773.99, -1962.51, -22891.67, 0.06, 0.97, 0.19
169, 2981.68, 5713.02, -9200.40, -5153.10, -2102.27, 31897.48, -2095.68, -22955.62, 0.00, 0.00, 0.00
170, 3091.98, 5816.91, -9271.21, -5108.87, -2058.66, 30711.59, -2245.81, -22860.29, 0.00, 0.00, 0.00
171, 3127.99, 5853.88, -9164.55, -5026.53, -1983.96, 30564.20, -2118.77, -22797.97, 0.00, 0.00, 0.00
172, 3035.43, 5768.69, -9083.23, -5058.58, -2015.14, 31584.64, -1979.25, -22878.87, 0.00, 0.00, 0.00
173, 2974.30, 5712.73, -9167.14, -5145.75, -2097.29, 32005.10, -2058.57, -22956.83, 0.00, 0.00, 0.00
174, 3076.81, 5808.28, -9259.05, -5114.06, -2070.20, 30899.45, -2238.64, -22873.63, 0.00, 0.00, 0.00
175, 3143.10, 5864.72, -9170.05, -5023.82, -1987.29, 30474.57, -2149.37, -22791.27, 0.00, 0.00, 0.00
176, 3072.76, 5803.67, -9053.15, -5029.10, -1984.45, 31402.54, -1977.93, -22846.03, 0.00, 0.00, 0.00
177, 2972.54, 5710.38, -9113.63, -5128.70, -2077.19, 32076.29, -2015.17, -22952.42, 0.00, 0.00, 0.00
178, 3049.58, 5778.55, -9235.36, -5135.02, -2085.80, 31125.94, -2222.97, -22897.26, 0.05, 0.97, 0.18
179, 3134.97, 5857.01, -9176.02, -5048.41, -2000.10, 30430.65, -2178.42, -22791.51, 0.00, 0.00, 0.00
180, 3074.04, 5804.61, -9063.12, -5045.26, -1991.09, 31198.68, -2009.24, -22837.85, 0.00, 0.00, 0.00
181, 2972.02, 5709.06, -9093.63, -5131.58, -2074.47, 32062.03, -1995.72, -22951.53, 0.00, 0.00, 0.00
182, 3021.17, 5755.48, -9227.87, -5157.35, -2103.48, 31364.03, -2198.12, -22931.30, 0.00, 0.00, 0.00
183, 3126.07, 5849.25, -9207.44, -5070.81, -2024.84, 30440.88, -2217.25, -22820.62, 0.00, 0.00, 0.00
184, 3107.03, 5825.78, -9072.44, -5030.80, -1988.57, 31015.19, -2034.90, -22825.31, 0.00, 0.00, 0.00
185, 2999.29, 5729.04, -9056.41, -5105.76, -2054.66, 32012.37, -1978.69, -22933.45, 0.00, 0.00, 0.00
186, 3003.36, 5738.92, -9195.33, -5162.52, -2111.48, 31594.48, -2164.03, -22940.44, 0.00, 0.00, 0.00
187, 3115.74, 5845.67, -9213.59, -5078.81, -2034.84, 30497.72, -2224.94, -22824.95, 0.06, 0.97, 0.18
188, 3118.76, 5848.94, -9076.66, -5014.50, -1972.47, 30840.85, -2047.67, -22802.33, 0.00, 0.00, 0.00
189, 3003.47, 5748.51, -9031.74, -5084.40, -2030.41, 31906.76, -1955.22, -22907.95, 0.00, 0.00, 0.00
190, 2993.46, 5736.75, -9148.59, -5158.92, -2089.35, 31794.42, -2112.37, -22943.42, 0.00, 0.00, 0.00
191, 3102.00, 5831.21, -9210.53, -5116.18, -2048.20, 30616.37, -2242.77, -22851.80, 0.00, 0.00, 0.00
192, 3128.26, 5855.24, -9094.10, -5046.31, -1986.53, 30688.68, -2094.00, -22809.28, 0.00, 0.00, 0.00
193, 3023.21, 5761.34, -9023.82, -5091.10, -2032.13, 31746.43, -1968.94, -22904.19, 0.00, 0.00, 0.00
194, 2978.01, 5720.75, -9127.40, -5170.54, -2106.79, 31938.07, -2082.94, -22965.88, 0.00, 0.00, 0.00
195, 3090.15, 5817.35, -9207.00, -5129.32, -2069.64, 30769.43, -2239.58, -22866.50, 0.00, 0.00, 0.00
196, 3143.35, 5863.69, -9098.79, -5042.37, -1988.61, 30564.45, -2110.16, -22790.55, 0.00, 0.00, 0.00
197, 3051.91, 5786.04, -8999.93, -5066.96, -2008.62, 31567.52, -1955.82, -22861.65, 0.06, 0.97, 0.19
198, 2973.25, 5709.93, -9082.97, -5164.39, -2098.87, 32043.93, -2034.77, -22954.14, 0.00, 0.00, 0.00
199, 3069.21, 5794.87, -9194.55, -5153.95, -2081.55, 30961.19, -2227.33, -22885.97, 0.00, 0.00, 0.00
200, 3144.85, 5867.31, -9112.05, -5059.45, -1983.92, 30472.65, -2139.75, -22797.71, 0.00, 0.00, 0.00
201, 3067.87, 5800.12, -9001.92, -5068.84, -1988.05, 31372.24, -1975.60, -22849.09, 0.00, 0.00, 0.00
202, 2969.36, 5704.08, -9054.36, -5165.35, -2094.94, 32081.26, -2011.57, -22959.67, 0.00, 0.00, 0.00
203, 3042.70, 5768.38, -9184.22, -5171.79, -2106.25, 31184.84, -2214.61, -22910.87, 0.00, 0.00, 0.00
204, 3125.65, 5846.41, -9147.36, -5085.96, -2024.62, 30434.87, -2190.25, -22817.38, 0.00, 0.00, 0.00
205, 3084.61, 5809.93, -9017.23, -5059.45, -2001.71, 31158.73, -2011.72, -22845.65, 0.00, 0.00, 0.00
206, 2989.39, 5721.62, -9019.42, -5131.83, -2073.95, 32061.32, -1983.31, -22946.41, 0.00, 0.00, 0.00
207, 3036.60, 5758.39, -9153.33, -5163.45, -2104.77, 31425.95, -2184.06, -22930.32, 0.06, 0.97, 0.19
208, 3133.94, 5853.59, -9146.98, -5081.74, -2023.37, 30460.91, -2208.24, -22820.91, 0.00, 0.00, 0.00
209, 3106.40, 5832.49, -9019.17, -5046.40, -1983.85, 30982.49, -2033.79, -22824.08, 0.00, 0.00, 0.00
210, 2979.17, 5714.85, -9015.93, -5139.18, -2068.99, 31992.23, -1975.34, -22942.14, 0.00, 0.00, 0.00
211, 2995.60, 5728.15, -9148.14, -5193.56, -2117.36, 31631.43, -2150.82, -22947.51, 0.00, 0.00, 0.00
212, 3117.91, 5839.80, -9164.26, -5118.71, -2037.14, 30519.29, -2220.94, -22830.99, 0.00, 0.00, 0.00
213, 3109.60, 5833.04, -9045.39, -5071.36, -1985.59, 30800.19, -2058.60, -22818.98, 0.00, 0.00, 0.00
214, 3000.14, 5729.56, -8992.60, -5133.44, -2049.70, 31861.70, -1962.77, -22921.62, 0.00, 0.00, 0.00
215, 2975.22, 5703.94, -9115.51, -5208.60, -2125.78, 31815.96, -2121.52, -22972.61, 0.00, 0.00, 0.00
216, 3102.51, 5822.99, -9166.09, -5140.95, -2056.23, 30624.24, -2242.91, -22857.61, 0.00, 0.00, 0.00
217, 3120.10, 5842.14, -9048.30, -5077.69, -1994.27, 30632.91, -2097.35, -22812.55, 0.05, 0.97, 0.19
218, 3014.24, 5742.48, -8983.05, -5126.17, -2045.03, 31679.37, -1977.39, -22911.07, 0.00, 0.00, 0.00
219, 2968.96, 5700.25, -9081.49, -5203.08, -2114.43, 31940.73, -2077.06, -22977.30, 0.00, 0.00, 0.00
220, 3080.61, 5804.95, -9170.85, -5169.04, -2071.54, 30778.02, -2241.23, -22878.55, 0.00, 0.00, 0.00
221, 3139.26, 5857.32, -9065.13, -5080.75, -1997.51, 30506.08, -2123.44, -22798.53, 0.00, 0.00, 0.00
222, 3054.72, 5777.32, -8962.80, -5101.11, -2021.47, 31481.92, -1973.90, -22872.85, 0.00, 0.00, 0.00
223, 2974.39, 5704.46, -9040.23, -5193.27, -2105.58, 32020.79, -2040.02, -22969.54, 0.00, 0.00, 0.00
224, 3070.82, 5796.95, -9155.50, -5176.35, -2082.60, 30977.08, -2229.07, -22898.94, 0.00, 0.00, 0.00
225, 3150.79, 5865.79, -9073.56, -5085.67, -2001.24, 30437.87, -2152.38, -22807.85, 0.00, 0.00, 0.00
226, 3075.69, 5799.18, -8958.98, -5094.43, -2013.20, 31287.48, -1993.69, -22864.54, 0.00, 0.00, 0.00
227, 2970.41, 5703.79, -9006.90, -5190.72, -2105.74, 32040.04, -2012.57, -22975.04, 0.06, 0.98, 0.19
228, 3037.18, 5764.69, -9142.13, -5204.20, -2116.17, 31182.02, -2217.76, -22934.77, 0.00, 0.00, 0.00
229, 3136.02, 5856.40, -9106.37, -5109.50, -2026.95, 30373.54, -2195.88, -22825.40, 0.00, 0.00, 0.00
230, 3092.01, 5816.57, -8990.59, -5082.25, -2002.74, 31062.33, -2021.58, -22848.44, 0.00, 0.00, 0.00
231, 2982.48, 5716.41, -9015.51, -5159.27, -2075.69, 31993.46, -1989.95, -22955.78, 0.00, 0.00, 0.00
232, 3009.89, 5745.72, -9189.96, -5201.54, -2111.97, 31404.18, -2192.57, -22945.16, 0.00, 0.00, 0.00
233, 3134.83, 5857.48, -9220.07, -5112.83, -2018.47, 30392.25, -2225.76, -22825.13, 0.00, 0.00, 0.00
234, 3118.76, 5835.84, -9142.06, -5072.46, -1974.66, 30860.40, -2053.12, -22828.78, 0.00, 0.00, 0.00
235, 2992.29, 5726.52, -9177.54, -5150.53, -2054.13, 31880.87, -1991.88, -22945.70, 0.00, 0.00, 0.00
236, 2993.26, 5730.16, -9367.93, -5213.10, -2115.21, 31591.51, -2176.79, -22969.46, 0.00, 0.00, 0.00
237, 3114.89, 5846.12, -9453.49, -5136.14, -2038.14, 30451.59, -2267.81, -22848.20, 0.06, 0.97, 0.19
238, 3125.67, 5855.51, -9389.61, -5067.52, -1975.76, 30671.22, -2101.47, -22814.89, 0.00, 0.00, 0.00
239, 3010.62, 5750.50, -9412.83, -5120.65, -2040.51, 31735.81, -2003.16, -22920.06, 0.00, 0.00, 0.00
240, 2980.07, 5721.00, -9606.22, -5194.34, -2110.18, 31757.87, -2152.94, -22973.97, 0.00, 0.00, 0.00
241, 3091.25, 5822.38, -9735.86, -5147.29, -2058.42, 30575.08, -2298.81, -22877.48, 0.00, 0.00, 0.00
242, 3120.77, 5848.89, -9689.03, -5070.20, -1982.29, 30530.85, -2161.84, -22814.11, 0.00, 0.00, 0.00
243, 3022.51, 5761.03, -9682.40, -5104.18, -2015.39, 31567.14, -2036.60, -22898.51, 0.00, 0.00, 0.00
244, 2970.21, 5715.01, -9826.94, -5182.18, -2090.80, 31895.22, -2139.62, -22971.47, 0.00, 0.00, 0.00
245, 3078.68, 5812.03, -9949.99, -5143.99, -2057.72, 30759.26, -2314.55, -22882.46, 0.00, 0.00, 0.00
246, 3141.29, 5867.67, -9888.79, -5049.55, -1965.41, 30432.64, -2204.37, -22802.67, 0.00, 0.00, 0.00
247, 3046.39, 5780.67, -9839.46, -5072.77, -1991.47, 31390.30, -2059.33, -22884.83, 0.07, 0.96, 0.19
248, 2964.58, 5703.90, -9926.88, -5155.23, -2083.76, 31977.07, -2115.35, -22979.98, 0.00, 0.00, 0.00
249, 3056.18, 5791.94, -10027.84, -5132.83, -2071.00, 30985.13, -2311.42, -22908.71, 0.00, 0.00, 0.00
250, 3128.71, 5859.38, -9969.84, -5042.84, -1989.42, 30387.42, -2257.15, -22820.41, 0.00, 0.00, 0.00
251, 3061.94, 5797.46, -9885.08, -5038.84, -1990.80, 31212.71, -2096.77, -22870.57, 0.00, 0.00, 0.00
252, 2961.99, 5705.15, -9934.12, -5125.50, -2074.91, 32015.34, -2105.42, -22974.75, 0.00, 0.00, 0.00
253, 3026.78, 5764.16, -10045.32, -5137.10, -2079.03, 31231.87, -2303.53, -22932.49, 0.00, 0.00, 0.00
254, 3125.38, 5852.22, -10001.42, -5047.52, -1990.40, 30390.75, -2293.53, -22823.48, 0.00, 0.00, 0.00
255, 3081.25, 5816.06, -9885.77, -5020.20, -1968.54, 31037.99, -2118.50, -22844.85, 0.00, 0.00, 0.00
0, 2975.04, 5715.88, -9894.85, -5097.40, -2041.79, 31992.92, -2077.08, -22952.71, 0.00, 0.00, 0.00
1, 3008.84, 5743.19, -10005.71, -5135.25, -2072.61, 31475.64, -2263.70, -22943.37, 0.06, 0.96, 0.19
2, 3122.09, 5846.93, -9980.46, -5051.34, -1996.06, 30446.00, -2304.89, -22821.26, 0.00, 0.00, 0.00
3, 3112.55, 5838.03, -9849.32, -5003.73, -1945.07, 30878.13, -2130.59, -22810.33, 0.00, 0.00, 0.00
4, 2988.52, 5723.52, -9832.51, -5084.82, -2024.08, 31924.77, -2062.55, -22930.27, 0.00, 0.00, 0.00
5, 2983.87, 5716.12, -9950.93, -5150.98, -2090.80, 31703.54, -2237.12, -22959.29, 0.00, 0.00, 0.00
6, 3107.63, 5832.78, -9954.06, -5077.35, -2014.45, 30552.15, -2325.81, -22839.82, 0.00, 0.00, 0.00
7, 3109.44, 5836.49, -9834.07, -5024.49, -1958.71, 30731.66, -2170.87, -22816.46, 0.00, 0.00, 0.00
8, 3001.57, 5736.87, -9777.64, -5077.58, -2009.18, 31796.38, -2059.04, -22905.98, 0.00, 0.00, 0.00
9, 2967.10, 5703.25, -9881.97, -5151.43, -2079.87, 31883.47, -2189.44, -22952.63, 0.00, 0.00, 0.00
10, 3093.08, 5814.81, -9919.86, -5095.28, -2020.46, 30701.10, -2319.71, -22841.18, 0.06, 0.97, 0.19
11, 3125.42, 5840.11, -9804.57, -5022.01, -1951.55, 30598.69, -2187.70, -22786.35, 0.00, 0.00, 0.00
12, 3015.38, 5748.62, -9734.12, -5059.21, -1994.98, 31616.05, -2063.96, -22883.29, 0.00, 0.00, 0.00
13, 2960.35, 5699.43, -9811.70, -5132.16, -2070.75, 32004.21, -2143.78, -22953.99, 0.00, 0.00, 0.00
14, 3067.42, 5799.63, -9882.96, -5099.91, -2041.72, 30888.37, -2320.47, -22872.67, 0.00, 0.00, 0.00
15, 3136.75, 5866.24, -9777.90, -5004.09, -1955.24, 30497.59, -2218.77, -22790.26, 0.00, 0.00, 0.00
16, 3052.06, 5783.47, -9690.80, -5020.63, -1974.53, 31429.97, -2067.96, -22862.68, 0.00, 0.00, 0.00
17, 2966.57, 5700.03, -9757.36, -5108.92, -2055.49, 32062.37, -2109.18, -22958.30, 0.00, 0.00, 0.00
18, 3057.18, 5780.47, -9851.15, -5102.50, -2049.57, 31092.44, -2303.62, -22895.27, 0.00, 0.00, 0.00
19, 3138.90, 5856.58, -9773.46, -5011.95, -1961.99, 30434.11, -2251.85, -22798.40, 0.00, 0.00, 0.00
20, 3071.53, 5795.40, -9671.53, -5013.32, -1965.81, 31216.98, -2090.49, -22846.77, 0.06, 0.97, 0.19
21, 2981.25, 5711.27, -9690.46, -5090.21, -2039.89, 32045.67, -2069.84, -22938.32, 0.00, 0.00, 0.00
22, 3034.54, 5761.56, -9807.74, -5118.33, -2060.96, 31306.25, -2272.50, -22913.31, 0.00, 0.00, 0.00
23, 3134.56, 5851.75, -9768.99, -5034.10, -1977.30, 30409.73, -2274.42, -22803.61, 0.00, 0.00, 0.00
24, 3094.71, 5817.87, -9654.25, -5011.13, -1955.08, 31002.83, -2102.94, -22824.17, 0.00, 0.00, 0.00
25, 2983.09, 5717.55, -9660.13, -5092.00, -2034.93, 31977.10, -2059.42, -22936.91, 0.00, 0.00, 0.00
26, 3000.19, 5731.75, -9787.74, -5142.44, -2085.64, 31522.98, -2251.54, -22942.77, 0.00, 0.00, 0.00
27, 3120.48, 5839.86, -9779.18, -5059.07, -2001.80, 30447.46, -2305.07, -22825.18, 0.00, 0.00, 0.00
28, 3117.08, 5835.68, -9652.24, -5007.35, -1947.33, 30806.31, -2129.54, -22814.60, 0.00, 0.00, 0.00
29, 3002.91, 5731.46, -9617.89, -5075.28, -2014.72, 31854.77, -2043.53, -22916.59, 0.00, 0.00, 0.00
30, 2982.71, 5710.94, -9739.01, -5151.85, -2087.65, 31706.46, -2211.68, -22951.60, 0.06, 0.96, 0.20
31, 3107.21, 5824.06, -9762.95, -5083.93, -2016.44, 30530.00, -2315.89, -22842.79, 0.00, 0.00, 0.00
32, 3122.96, 5838.07, -9639.46, -5014.59, -1951.87, 30637.18, -2160.45, -22808.59, 0.00, 0.00, 0.00
33, 3015.09, 5745.25, -9580.14, -5059.47, -2002.09, 31695.44, -2043.71, -22903.97, 0.00, 0.00, 0.00
34, 2983.24, 5714.20, -9665.54, -5123.65, -2065.64, 31849.25, -2157.73, -22951.93, 0.00, 0.00, 0.00
35, 3098.26, 5819.75, -9715.39, -5074.83, -2018.63, 30677.48, -2307.19, -22853.47, 0.00, 0.00, 0.00
36, 3142.34, 5857.21, -9599.38, -4996.37, -1945.79, 30502.31, -2182.00, -22790.31, 0.00, 0.00, 0.00
37, 3041.04, 5766.12, -9511.58, -5031.60, -1978.33, 31503.80, -2045.50, -22874.98, 0.00, 0.00, 0.00
38, 2967.66, 5695.96, -9586.37, -5124.74, -2072.34, 31941.78, -2129.05, -22962.15, 0.00, 0.00, 0.00
39, 3071.55, 5791.09, -9660.36, -5100.60, -2048.18, 30852.51, -2308.96, -22880.90, 0.00, 0.00, 0.00
40, 3138.25, 5854.03, -9562.54, -5012.31, -1959.80, 30399.67, -2214.19, -22794.73, 0.05, 0.97, 0.19
41, 3062.55, 5787.85, -9455.95, -5017.79, -1974.66, 31305.20, -2056.29, -22853.27, 0.00, 0.00, 0.00
42, 2964.87, 5700.39, -9511.85, -5109.63, -2068.52, 31990.44, -2090.07, -22955.71, 0.00, 0.00, 0.00
43, 3041.25, 5773.21, -9623.01, -5116.22, -2068.79, 31062.98, -2289.69, -22901.44, 0.00, 0.00, 0.00
44, 3135.37, 5854.03, -9551.93, -5029.19, -1977.01, 30343.19, -2247.18, -22801.21, 0.00, 0.00, 0.00
45, 3076.36, 5800.46, -9428.57, -5016.94, -1965.14, 31090.40, -2075.94, -22838.72, 0.00, 0.00, 0.00
46, 2962.25, 5700.66, -9444.10, -5104.51, -2046.50, 31962.48, -2057.41, -22944.49, 0.00, 0.00, 0.00
47, 3015.72, 5747.06, -9560.02, -5130.17, -2064.76, 31287.32, -2249.75, -22913.98, 0.00, 0.00, 0.00
48, 3126.58, 5849.03, -9523.88, -5042.11, -1975.69, 30356.71, -2257.24, -22801.30, 0.00, 0.00, 0.00
49, 3090.35, 5819.34, -9399.15, -5010.95, -1945.88, 30914.94, -2078.71, -22810.04, 0.00, 0.00, 0.00
50, 2970.44, 5710.16, -9392.83, -5086.68, -2021.98, 31914.80, -2025.07, -22923.70, 0.05, 0.97, 0.19
51, 2996.50, 5731.75, -9508.90, -5128.50, -2055.85, 31531.20, -2201.40, -22918.67, 0.00, 0.00, 0.00
52, 3108.93, 5836.51, -9516.48, -5056.30, -1981.77, 30444.10, -2268.90, -22805.42, 0.00, 0.00, 0.00
53, 3102.62, 5837.31, -9393.21, -5004.67, -1939.62, 30759.53, -2104.24, -22794.20, 0.00, 0.00, 0.00
54, 2983.00, 5724.08, -9362.50, -5075.79, -2012.77, 31815.27, -2017.38, -22907.65, 0.00, 0.00, 0.00
55, 2969.27, 5709.37, -9482.30, -5141.12, -2077.10, 31731.27, -2170.04, -22944.74, 0.00, 0.00, 0.00
56, 3091.76, 5825.11, -9526.54, -5078.38, -2015.84, 30560.04, -2289.65, -22835.12, 0.00, 0.00, 0.00
57, 3120.42, 5851.82, -9405.26, -5005.20, -1946.35, 30610.09, -2134.95, -22783.78, 0.00, 0.00, 0.00
58, 3019.12, 5761.05, -9339.21, -5046.24, -1982.80, 31663.01, -2006.61, -22872.92, 0.00, 0.00, 0.00
59, 2966.37, 5711.41, -9440.21, -5126.17, -2064.76, 31894.33, -2121.05, -22943.04, 0.00, 0.00, 0.00
60, 3070.70, 5806.33, -9522.87, -5088.60, -2040.31, 30734.34, -2293.13, -22857.25, 0.06, 0.96, 0.19
61, 3130.72, 5862.62, -9412.01, -4993.58, -1952.40, 30498.19, -2166.15, -22779.49, 0.00, 0.00, 0.00
62, 3039.37, 5779.49, -9321.79, -5020.13, -1977.12, 31479.77, -2021.47, -22860.54, 0.00, 0.00, 0.00
63, 2959.33, 5708.39, -9402.35, -5109.34, -2056.85, 31978.84, -2088.57, -22946.88, 0.00, 0.00, 0.00
64, 3062.61, 5802.54, -9500.38, -5085.83, -2034.93, 30932.38, -2267.61, -22863.29, 0.00, 0.00, 0.00
65, 3143.12, 5873.84, -9416.66, -4993.40, -1949.70, 30427.96, -2186.96, -22773.79, 0.00, 0.00, 0.00
66, 3067.69, 5808.19, -9319.60, -5004.60, -1956.67, 31295.08, -2026.74, -22832.96, 0.00, 0.00, 0.00
67, 2967.73, 5717.00, -9373.81, -5099.82, -2047.15, 32024.21, -2044.16, -22937.18, 0.00, 0.00, 0.00
68, 3037.11, 5777.59, -9496.34, -5116.00, -2062.75, 31160.63, -2251.11, -22897.55, 0.00, 0.00, 0.00
69, 3135.35, 5865.77, -9446.56, -5027.29, -1976.01, 30394.33, -2227.04, -22792.61, 0.00, 0.00, 0.00
70, 3089.03, 5825.18, -9324.12, -5008.42, -1955.04, 31097.47, -2052.49, -22824.24, 0.07, 0.97, 0.19
71, 2988.14, 5726.61, -9336.08, -5087.73, -2032.04, 32000.23, -2024.08, -22930.90, 0.00, 0.00, 0.00
72, 3017.69, 5753.74, -9469.32, -5129.26, -2070.02, 31385.51, -2224.13, -22919.50, 0.00, 0.00, 0.00
73, 3127.95, 5856.47, -9442.79, -5042.55, -1984.63, 30409.37, -2251.69, -22805.19, 0.00, 0.00, 0.00
74, 3104.95, 5839.42, -9316.01, -5001.34, -1947.53, 30912.62, -2074.87, -22799.14, 0.00, 0.00, 0.00
75, 2999.29, 5739.70, -9298.37, -5065.60, -2013.15, 31930.20, -2001.20, -22907.88, 0.00, 0.00, 0.00
76, 3007.09, 5745.09, -9421.26, -5114.44, -2063.00, 31623.36, -2173.62, -22923.12, 0.00, 0.00, 0.00
77, 3128.84, 5851.53, -9436.30, -5039.74, -1984.70, 30507.96, -2250.51, -22807.00, 0.00, 0.00, 0.00
78, 3126.52, 5854.15, -9312.00, -4977.89, -1920.39, 30763.46, -2081.86, -22779.53, 0.00, 0.00, 0.00
79, 3010.13, 5752.69, -9265.13, -5035.38, -1985.80, 31815.56, -1981.62, -22884.12, 0.00, 0.00, 0.00
80, 2985.95, 5728.17, -9374.63, -5108.92, -2065.66, 31807.27, -2126.54, -22931.01, 0.07, 0.97, 0.19
81, 3099.47, 5832.33, -9426.54, -5061.64, -2014.03, 30631.79, -2264.68, -22831.41, 0.00, 0.00, 0.00
82, 3135.84, 5864.38, -9304.67, -4987.48, -1941.58, 30614.38, -2120.04, -22783.91, 0.00, 0.00, 0.00
83, 3032.98, 5773.86, -9228.48, -5028.07, -1981.42, 31648.28, -1988.30, -22872.85, 0.00, 0.00, 0.00
84, 2976.65, 5724.42, -9322.29, -5111.20, -2065.44, 31931.88, -2096.24, -22947.46, 0.00, 0.00, 0.00
85, 3091.89, 5832.31, -9397.05, -5066.89, -2026.12, 30795.85, -2262.47, -22851.53, 0.00, 0.00, 0.00
86, 3147.44, 5884.66, -9294.28, -4981.44, -1943.69, 30503.31, -2144.58, -22773.21, 0.00, 0.00, 0.00
87, 3056.67, 5802.47, -9193.25, -5010.19, -1966.60, 31468.95, -1988.66, -22847.26, 0.00, 0.00, 0.00
88, 2972.98, 5722.36, -9265.78, -5104.51, -2055.73, 32025.67, -2046.93, -22940.85, 0.00, 0.00, 0.00
89, 3063.64, 5805.98, -9370.03, -5097.78, -2040.51, 31004.80, -2241.68, -22875.82, 0.00, 0.00, 0.00
90, 3142.90, 5878.71, -9294.26, -5012.24, -1951.73, 30427.38, -2171.96, -22783.45, 0.06, 0.97, 0.19
91, 3080.94, 5823.37, -9168.93, -5005.83, -1949.43, 31264.84, -1998.45, -22826.27, 0.00, 0.00, 0.00
92, 2980.07, 5726.99, -9209.05, -5097.99, -2042.03, 32043.48, -2010.29, -22934.83, 0.00, 0.00, 0.00
93, 3031.39, 5775.71, -9342.31, -5124.11, -2062.84, 31221.05, -2223.08, -22902.31, 0.00, 0.00, 0.00
94, 3128.64, 5863.89, -9301.99, -5036.56, -1976.45, 30397.43, -2208.15, -22797.26, 0.00, 0.00, 0.00
95, 3095.05, 5831.44, -9166.09, -5003.82, -1947.73, 31061.28, -2027.35, -22818.81, 0.00, 0.00, 0.00
96, 2992.81, 5739.26, -9163.54, -5078.00, -2020.75, 31996.34, -1984.57, -22927.35, 0.00, 0.00, 0.00
97, 3021.69, 5762.84, -9298.55, -5127.11, -2065.84, 31446.80, -2188.57, -22917.11, 0.00, 0.00, 0.00
98, 3131.08, 5865.75, -9285.61, -5045.97, -1976.81, 30428.61, -2223.86, -22796.92, 0.00, 0.00, 0.00
99, 3111.83, 5851.60, -9151.23, -4999.97, -1933.47, 30881.15, -2044.56, -22793.10, 0.06, 0.97, 0.19
100, 2993.41, 5739.17, -9131.89, -5074.45, -2007.10, 31914.54, -1974.04, -22907.95, 0.00, 0.00, 0.00
101, 2992.54, 5739.10, -9258.18, -5134.17, -2073.44, 31664.91, -2150.04, -22935.10, 0.00, 0.00, 0.00
102, 3103.45, 5844.42, -9290.30, -5068.32, -2018.99, 30529.20, -2250.28, -22831.55, 0.00, 0.00, 0.00
103, 3114.63, 5853.30, -9155.74, -5005.99, -1957.21, 30720.71, -2086.16, -22801.01, 0.00, 0.00, 0.00
104, 3017.89, 5762.23, -9085.98, -5054.33, -2001.02, 31776.20, -1970.73, -22899.05, 0.00, 0.00, 0.00
105, 2989.01, 5738.45, -9191.37, -5128.07, -2068.59, 31840.91, -2103.46, -22943.97, 0.00, 0.00, 0.00
106, 3090.64, 5830.25, -9259.52, -5094.23, -2029.52, 30666.93, -2255.40, -22851.13, 0.00, 0.00, 0.00
107, 3125.11, 5864.25, -9142.11, -5020.94, -1960.38, 30583.27, -2121.00, -22797.53, 0.00, 0.00, 0.00
108, 3030.85, 5776.27, -9052.34, -5050.40, -1995.34, 31611.24, -1980.97, -22881.12, 0.00, 0.00, 0.00
109, 2967.95, 5714.71, -9148.95, -5137.19, -2078.42, 31969.41, -2073.73, -22957.92, 0.06, 0.97, 0.19
110, 3074.62, 5817.00, -9244.99, -5105.90, -2046.03, 30844.60, -2249.68, -22866.48, 0.00, 0.00, 0.00
111, 3139.01, 5873.64, -9146.33, -5019.22, -1960.72, 30489.41, -2147.15, -22785.93, 0.00, 0.00, 0.00
112, 3056.74, 5797.22, -9039.31, -5036.27, -1978.62, 31430.93, -1994.51, -22855.69, 0.00, 0.00, 0.00
113, 2974.48, 5719.14, -9106.73, -5128.99, -2059.71, 32045.20, -2038.28, -22952.34, 0.00, 0.00, 0.00
114, 3070.86, 5806.29, -9227.11, -5117.03, -2048.14, 31068.81, -2231.84, -22886.53, 0.00, 0.00, 0.00
115, 3146.66, 5885.44, -9158.60, -5026.44, -1967.98, 30437.76, -2175.76, -22792.01, 0.00, 0.00, 0.00
116, 3081.95, 5827.66, -9031.87, -5019.29, -1963.47, 31239.45, -1999.50, -22832.57, 0.00, 0.00, 0.00
117, 2976.78, 5725.35, -9057.13, -5108.98, -2048.90, 32055.04, -2001.20, -22943.73, 0.00, 0.00, 0.00
118, 3029.87, 5773.37, -9197.45, -5134.69, -2069.99, 31295.88, -2211.12, -22922.67, 0.00, 0.00, 0.00
119, 3130.27, 5864.27, -9170.05, -5042.96, -1977.37, 30435.77, -2205.54, -22803.45, 0.06, 0.97, 0.19
120, 3104.01, 5841.40, -9039.67, -5004.91, -1950.95, 31015.71, -2029.43, -22811.38, 0.00, 0.00, 0.00
121, 3009.75, 5757.99, -9031.92, -5079.41, -2025.22, 31845.74, -1998.74, -22911.30, 0.00, 0.00, 0.00
122, 3024.15, 5766.50, -9157.42, -5131.04, -2063.45, 31456.03, -2155.54, -22911.03, 0.00, 0.00, 0.00
123, 3119.32, 5851.93, -9165.80, -5062.85, -1994.60, 30616.70, -2187.43, -22812.37, 0.00, 0.00, 0.00
124, 3111.43, 5845.74, -9049.33, -5023.02, -1956.72, 30932.33, -2055.04, -22808.99, 0.00, 0.00, 0.00
125, 3022.16, 5766.48, -9011.13, -5081.67, -2010.47, 31759.68, -1997.33, -22904.77, 0.00, 0.00, 0.00
126, 3015.50, 5752.87, -9122.04, -5137.86, -2063.89, 31606.44, -2124.44, -22925.45, 0.00, 0.00, 0.00
127, 3112.57, 5841.05, -9158.49, -5080.31, -2002.25, 30700.30, -2190.78, -22824.75, 0.00, 0.00, 0.00
128, 3129.04, 5864.02, -9039.67, -5013.85, -1935.17, 30812.66, -2057.01, -22784.56, 0.00, 0.00, 0.00
129, 3039.48, 5783.69, -8978.47, -5060.26, -1984.12, 31670.77, -1971.36, -22872.58, 0.06, 0.97, 0.19
130, 2999.22, 5740.80, -9082.72, -5135.02, -2065.23, 31753.09, -2087.23, -22931.50, 0.00, 0.00, 0.00
131, 3088.90, 5823.46, -9158.47, -5097.47, -2032.98, 30827.84, -2203.37, -22850.99, 0.00, 0.00, 0.00
132, 3137.72, 5869.72, -9057.75, -5019.93, -1961.23, 30720.55, -2091.74, -22789.82, 0.00, 0.00, 0.00
133, 3059.42, 5795.47, -8982.16, -5052.86, -1994.83, 31538.22, -1991.32, -22866.01, 0.00, 0.00, 0.00
134, 2998.40, 5743.97, -9063.43, -5133.08, -2070.02, 31852.11, -2070.53, -22940.62, 0.00, 0.00, 0.00
135, 3076.45, 5814.09, -9161.78, -5116.63, -2052.38, 30981.39, -2207.95, -22876.21, 0.00, 0.00, 0.00
136, 3133.74, 5864.78, -9088.06, -5038.17, -1975.87, 30641.54, -2127.24, -22798.02, 0.00, 0.00, 0.00
137, 3076.49, 5818.14, -8981.96, -5041.01, -1977.44, 31377.87, -1998.56, -22843.19, 0.00, 0.00, 0.00
138, 2996.09, 5747.24, -9031.83, -5120.87, -2050.33, 31894.98, -2031.86, -22929.74, 0.00, 0.00, 0.00
139, 3051.46, 5791.85, -9147.61, -5127.60, -2045.32, 31158.26, -2178.78, -22887.27, 0.05, 0.97, 0.19
140, 3129.27, 5861.32, -9102.57, -5048.57, -1968.54, 30607.49, -2134.30, -22799.07, 0.00, 0.00, 0.00
141, 3087.94, 5827.68, -8983.59, -5034.57, -1963.09, 31233.75, -1997.84, -22822.34, 0.00, 0.00, 0.00
142, 2996.72, 5741.13, -9000.53, -5115.35, -2035.66, 31905.35, -2003.61, -22925.85, 0.00, 0.00, 0.00
143, 3032.66, 5768.90, -9124.03, -5139.38, -2063.27, 31345.68, -2154.57, -22897.80, 0.00, 0.00, 0.00
144, 3123.50, 5855.13, -9104.80, -5060.41, -1984.12, 30622.74, -2150.24, -22795.83, 0.00, 0.00, 0.00
145, 3099.94, 5833.81, -8989.09, -5034.66, -1957.19, 31082.33, -2015.17, -22810.16, 0.00, 0.00, 0.00
146, 2997.61, 5739.77, -8986.76, -5112.78, -2031.93, 31856.51, -1992.46, -22918.18, 0.00, 0.00, 0.00
147, 3018.13, 5756.36, -9107.15, -5148.68, -2064.00, 31510.10, -2132.11, -22917.76, 0.00, 0.00, 0.00
148, 3122.05, 5842.21, -9126.71, -5082.99, -1998.85, 30669.34, -2172.52, -22820.48, 0.00, 0.00, 0.00
149, 3117.64, 5847.64, -9008.80, -5036.94, -1955.06, 30950.15, -2035.77, -22805.95, 0.06, 0.97, 0.20
150, 3021.98, 5769.52, -8958.27, -5088.51, -2008.46, 31784.72, -1974.17, -22896.57, 0.00, 0.00, 0.00
151, 3006.73, 5749.87, -9067.50, -5151.70, -2064.05, 31678.14, -2095.10, -22929.02, 0.00, 0.00, 0.00
152, 3100.39, 5832.11, -9124.12, -5101.50, -2013.69, 30763.55, -2171.05, -22835.68, 0.00, 0.00, 0.00
153, 3119.03, 5850.70, -9025.68, -5046.11, -1951.93, 30823.35, -2055.56, -22801.66, 0.00, 0.00, 0.00
154, 3032.82, 5773.21, -8967.65, -5094.30, -1998.74, 31667.86, -1980.34, -22891.22, 0.00, 0.00, 0.00
155, 3001.82, 5743.84, -9050.24, -5160.97, -2064.83, 31799.76, -2073.73, -22937.52, 0.00, 0.00, 0.00
156, 3095.83, 5827.70, -9117.97, -5119.47, -2024.00, 30897.80, -2175.47, -22843.79, 0.00, 0.00, 0.00
157, 3136.31, 5865.50, -9024.49, -5049.77, -1958.88, 30742.92, -2073.55, -22790.17, 0.00, 0.00, 0.00
158, 3059.37, 5796.61, -8935.87, -5081.60, -1989.22, 31528.52, -1974.40, -22866.35, 0.00, 0.00, 0.00
159, 2986.28, 5729.44, -9016.00, -5166.78, -2075.81, 31884.72, -2051.31, -22950.08, 0.07, 0.97, 0.19
160, 3065.25, 5800.77, -9119.13, -5144.61, -2056.56, 31045.83, -2184.75, -22880.05, 0.00, 0.00, 0.00
161, 3142.97, 5873.37, -9033.61, -5049.13, -1964.29, 30661.12, -2099.59, -22789.99, 0.00, 0.00, 0.00
162, 3074.73, 5816.55, -8927.51, -5060.08, -1968.32, 31369.09, -1980.03, -22845.63, 0.00, 0.00, 0.00
163, 2986.60, 5733.40, -8983.03, -5148.59, -2058.80, 31914.09, -2023.50, -22932.49, 0.00, 0.00, 0.00
164, 3043.82, 5786.51, -9103.78, -5156.17, -2060.96, 31213.81, -2169.06, -22892.81, 0.00, 0.00, 0.00
165, 3139.46, 5870.19, -9053.55, -5072.04, -1969.84, 30633.38, -2119.44, -22792.39, 0.00, 0.00, 0.00
166, 3104.14, 5841.72, -8932.85, -5059.18, -1952.76, 31209.38, -1982.73, -22819.86, 0.00, 0.00, 0.00
