%OpenBCI Raw EEG Data
%
%Sample Rate = 250.0 Hz
%First Column = SampleIndex
%Other Columns = EEG data in microvolts followed by Accel Data (in G) interleaved with Aux Data
0, 14553.47, 26632.30, -35360.95, -48509.68, -32655.83, -45854.31, -33038.09, -47330.91, 0.03, 0.48, 0.11
1, 14592.04, 26674.88, -35307.42, -48478.85, -32585.65, -45828.92, -33013.21, -47308.09, 0.00, 0.00, 0.00
2, 14492.78, 26610.09, -35404.25, -48608.54, -32614.61, -45965.40, -33147.75, -47449.55, 0.00, 0.00, 0.00
3, 14425.97, 26542.99, -35485.32, -48672.96, -32703.02, -46029.37, -33212.79, -47514.93, 0.00, 0.00, 0.00
4, 14505.81, 26585.21, -35407.57, -48566.56, -32699.46, -45918.02, -33102.98, -47402.48, 0.00, 0.00, 0.00
5, 14592.18, 26666.88, -35305.90, -48483.32, -32606.34, -45829.90, -33019.23, -47321.91, 0.00, 0.00, 0.00
6, 14511.45, 26624.26, -35380.89, -48591.55, -32607.48, -45938.24, -33128.61, -47435.34, 0.00, 0.00, 0.00
7, 14411.44, 26532.84, -35494.64, -48695.64, -32711.17, -46040.48, -33231.52, -47541.53, 0.08, 0.95, 0.24
8, 14459.86, 26542.67, -35455.05, -48618.51, -32747.29, -45962.65, -33156.04, -47461.27, 0.00, 0.00, 0.00
9, 14527.43, 26598.15, -35375.03, -48539.74, -32682.18, -45884.66, -33081.61, -47384.45, 0.00, 0.00, 0.00
10, 14452.10, 26557.63, -35443.16, -48640.52, -32682.03, -45988.87, -33187.54, -47494.75, 0.00, 0.00, 0.00
11, 14331.89, 26453.51, -35575.24, -48775.93, -32792.27, -46125.26, -33325.89, -47632.73, 0.00, 0.00, 0.00
12, 14375.97, 26464.20, -35540.77, -48709.57, -32828.25, -46053.80, -33251.21, -47554.79, 0.00, 0.00, 0.00
13, 14491.44, 26555.82, -35414.84, -48585.25, -32741.39, -45929.05, -33119.83, -47427.61, 0.00, 0.00, 0.00
14, 14485.14, 26575.35, -35409.30, -48618.71, -32681.04, -45965.55, -33154.88, -47466.52, 0.00, 0.00, 0.00
15, 14403.49, 26519.45, -35503.06, -48721.86, -32734.78, -46071.53, -33259.75, -47575.69, 0.00, 0.00, 0.00
16, 14429.55, 26520.54, -35494.77, -48679.68, -32777.09, -46024.79, -33215.18, -47530.34, 0.00, 0.00, 0.00
17, 14522.42, 26584.36, -35394.23, -48568.06, -32729.48, -45912.96, -33102.51, -47419.34, 0.07, 0.95, 0.23
18, 14519.40, 26599.25, -35368.89, -48574.00, -32665.31, -45925.66, -33112.14, -47431.65, 0.00, 0.00, 0.00
19, 14433.82, 26532.62, -35456.55, -48673.09, -32697.61, -46028.79, -33215.41, -47536.95, 0.00, 0.00, 0.00
20, 14436.05, 26505.50, -35473.40, -48661.91, -32753.98, -46015.22, -33203.61, -47525.48, 0.00, 0.00, 0.00
21, 14516.99, 26548.64, -35387.37, -48559.30, -32728.34, -45906.88, -33097.21, -47418.75, 0.00, 0.00, 0.00
22, 14529.73, 26572.18, -35358.60, -48561.53, -32671.48, -45911.42, -33095.94, -47422.51, 0.00, 0.00, 0.00
23, 14447.90, 26524.21, -35440.63, -48671.14, -32690.28, -46024.95, -33203.63, -47537.73, 0.00, 0.00, 0.00
24, 14410.48, 26476.80, -35487.77, -48699.51, -32761.55, -46050.14, -33225.15, -47556.66, 0.00, 0.00, 0.00
25, 14500.74, 26527.94, -35393.74, -48581.83, -32741.88, -45923.56, -33106.42, -47432.86, 0.00, 0.00, 0.00
26, 14534.18, 26565.18, -35344.61, -48552.88, -32680.91, -45896.78, -33086.70, -47415.52, 0.08, 0.96, 0.23
27, 14431.92, 26501.75, -35446.71, -48679.57, -32713.88, -46033.59, -33224.46, -47555.50, 0.00, 0.00, 0.00
28, 14374.16, 26443.72, -35521.26, -48733.89, -32795.53, -46091.00, -33282.21, -47612.52, 0.00, 0.00, 0.00
29, 14450.38, 26481.18, -35452.77, -48629.17, -32795.37, -45983.06, -33175.04, -47502.57, 0.00, 0.00, 0.00
30, 14515.58, 26538.07, -35376.57, -48562.38, -32728.59, -45919.55, -33114.00, -47441.20, 0.00, 0.00, 0.00
31, 14453.24, 26510.49, -35431.18, -48648.57, -32721.46, -46013.55, -33208.54, -47538.40, 0.00, 0.00, 0.00
32, 14384.73, 26455.28, -35511.09, -48718.02, -32790.43, -46085.52, -33281.50, -47609.91, 0.00, 0.00, 0.00
33, 14440.88, 26475.60, -35459.32, -48633.30, -32811.24, -45996.85, -33190.82, -47513.57, 0.00, 0.00, 0.00
34, 14528.50, 26545.22, -35356.08, -48540.10, -32732.16, -45902.26, -33091.02, -47418.93, 0.00, 0.00, 0.00
35, 14473.27, 26521.04, -35402.08, -48623.02, -32706.12, -45988.00, -33172.76, -47508.09, 0.00, 0.00, 0.00
36, 14376.66, 26443.25, -35511.15, -48735.94, -32785.83, -46102.41, -33282.95, -47620.93, 0.09, 0.96, 0.23
37, 14405.83, 26439.41, -35492.02, -48685.99, -32833.04, -46050.29, -33226.52, -47564.91, 0.00, 0.00, 0.00
38, 14511.18, 26522.27, -35378.30, -48569.02, -32766.85, -45933.82, -33108.32, -47450.32, 0.00, 0.00, 0.00
39, 14485.45, 26524.05, -35391.55, -48618.62, -32723.20, -45982.50, -33162.10, -47507.76, 0.00, 0.00, 0.00
40, 14366.87, 26432.01, -35517.50, -48755.10, -32807.60, -46115.69, -33299.83, -47644.69, 0.00, 0.00, 0.00
41, 14364.06, 26403.87, -35530.91, -48736.77, -32871.28, -46094.53, -33274.53, -47620.50, 0.00, 0.00, 0.00
42, 14468.02, 26475.26, -35421.77, -48613.19, -32821.68, -45968.91, -33147.61, -47491.93, 0.00, 0.00, 0.00
43, 14483.44, 26507.07, -35392.62, -48615.13, -32749.60, -45974.32, -33150.52, -47499.04, 0.00, 0.00, 0.00
44, 14380.96, 26436.10, -35497.45, -48740.48, -32797.88, -46103.51, -33280.14, -47630.02, 0.00, 0.00, 0.00
45, 14337.44, 26377.03, -35552.73, -48768.46, -32892.96, -46126.71, -33307.52, -47657.00, 0.00, 0.00, 0.00
46, 14427.87, 26432.32, -35459.07, -48651.05, -32867.43, -46005.14, -33187.82, -47538.27, 0.09, 0.96, 0.23
47, 14455.86, 26470.90, -35417.07, -48631.79, -32803.24, -45987.28, -33171.98, -47518.71, 0.00, 0.00, 0.00
48, 14371.14, 26422.38, -35501.25, -48740.93, -32822.48, -46101.81, -33286.02, -47633.51, 0.00, 0.00, 0.00
49, 14306.14, 26350.45, -35581.79, -48802.39, -32912.77, -46162.48, -33344.53, -47693.23, 0.00, 0.00, 0.00
50, 14376.06, 26379.15, -35517.84, -48710.44, -32918.31, -46064.84, -33244.84, -47594.11, 0.00, 0.00, 0.00
51, 14434.85, 26438.74, -35444.93, -48659.95, -32846.31, -46011.06, -33195.49, -47547.03, 0.00, 0.00, 0.00
52, 14368.97, 26408.27, -35508.25, -48756.75, -32842.54, -46109.43, -33295.96, -47649.38, 0.00, 0.00, 0.00
53, 14297.29, 26339.76, -35596.85, -48831.70, -32927.43, -46187.55, -33371.02, -47723.50, 0.00, 0.00, 0.00
54, 14378.63, 26382.88, -35520.14, -48718.64, -32927.07, -46072.62, -33250.72, -47602.89, 0.00, 0.00, 0.00
55, 14489.81, 26484.31, -35396.42, -48601.61, -32815.96, -45958.02, -33137.51, -47491.55, 0.00, 0.00, 0.00
56, 14422.95, 26454.09, -35455.70, -48691.98, -32800.04, -46051.01, -33235.57, -47596.83, 0.09, 0.95, 0.22
57, 14335.98, 26381.00, -35556.48, -48783.35, -32885.02, -46138.94, -33329.07, -47692.30, 0.00, 0.00, 0.00
58, 14401.43, 26411.94, -35497.14, -48690.34, -32899.26, -46037.86, -33230.96, -47590.77, 0.00, 0.00, 0.00
59, 14482.50, 26475.33, -35405.07, -48603.69, -32833.19, -45949.26, -33137.85, -47501.39, 0.00, 0.00, 0.00
60, 14461.60, 26483.35, -35418.02, -48653.55, -32786.81, -46002.95, -33184.18, -47554.77, 0.00, 0.00, 0.00
61, 14369.89, 26412.79, -35516.92, -48762.81, -32842.51, -46111.51, -33287.94, -47664.18, 0.00, 0.00, 0.00
62, 14376.78, 26389.14, -35520.30, -48736.03, -32905.77, -46079.64, -33252.62, -47630.40, 0.00, 0.00, 0.00
63, 14495.35, 26481.54, -35394.30, -48603.44, -32827.09, -45940.52, -33116.72, -47492.47, 0.00, 0.00, 0.00
64, 14473.89, 26485.54, -35404.27, -48647.14, -32778.86, -45986.63, -33162.93, -47543.32, 0.00, 0.00, 0.00
65, 14358.63, 26399.44, -35528.19, -48779.68, -32852.95, -46126.96, -33301.10, -47687.33, 0.00, 0.00, 0.00
66, 14386.32, 26402.64, -35519.65, -48728.57, -32899.18, -46072.64, -33255.62, -47638.20, 0.08, 0.96, 0.22
67, 14492.02, 26475.39, -35410.23, -48600.89, -32840.97, -45941.02, -33124.37, -47506.44, 0.00, 0.00, 0.00
68, 14486.86, 26489.28, -35401.83, -48623.11, -32781.78, -45967.61, -33141.98, -47532.79, 0.00, 0.00, 0.00
69, 14367.37, 26405.25, -35520.32, -48768.62, -32842.91, -46114.80, -33287.40, -47680.58, 0.00, 0.00, 0.00
70, 14358.47, 26383.39, -35544.75, -48768.09, -32915.74, -46109.10, -33282.35, -47673.45, 0.00, 0.00, 0.00
71, 14473.49, 26461.80, -35424.72, -48634.11, -32864.68, -45969.63, -33140.42, -47531.34, 0.00, 0.00, 0.00
72, 14522.33, 26517.77, -35360.66, -48598.19, -32777.29, -45931.61, -33104.09, -47498.33, 0.00, 0.00, 0.00
73, 14428.25, 26456.89, -35456.64, -48718.91, -32798.03, -46052.68, -33228.57, -47625.84, 0.00, 0.00, 0.00
74, 14380.11, 26403.73, -35520.74, -48757.60, -32876.20, -46089.50, -33267.73, -47664.64, 0.00, 0.00, 0.00
75, 14464.89, 26451.32, -35435.96, -48643.18, -32863.70, -45974.74, -33150.12, -47546.23, 0.00, 0.00, 0.00
76, 14513.12, 26497.68, -35373.18, -48598.55, -32794.57, -45933.93, -33103.96, -47504.07, 0.07, 0.96, 0.23
77, 14418.46, 26438.51, -35467.05, -48723.67, -32812.94, -46062.68, -33227.03, -47633.49, 0.00, 0.00, 0.00
78, 14339.63, 26366.43, -35561.54, -48809.82, -32905.66, -46144.62, -33306.24, -47714.74, 0.00, 0.00, 0.00
79, 14396.94, 26386.52, -35508.36, -48733.04, -32927.98, -46058.25, -33220.64, -47627.34, 0.00, 0.00, 0.00
80, 14471.37, 26448.48, -35417.88, -48659.30, -32853.58, -45977.85, -33136.13, -47549.78, 0.00, 0.00, 0.00
81, 14433.28, 26441.17, -35444.93, -48727.52, -32820.77, -46045.35, -33203.34, -47622.13, 0.00, 0.00, 0.00
82, 14374.61, 26395.58, -35512.32, -48797.19, -32870.09, -46111.07, -33268.09, -47686.91, 0.00, 0.00, 0.00
83, 14410.91, 26396.92, -35481.23, -48736.28, -32904.23, -46042.96, -33197.93, -47614.38, 0.00, 0.00, 0.00
84, 14474.72, 26441.53, -35402.46, -48663.70, -32853.42, -45970.25, -33111.67, -47539.63, 0.00, 0.00, 0.00
85, 14411.76, 26408.34, -35460.66, -48751.50, -32841.13, -46061.36, -33196.39, -47634.94, 0.00, 0.00, 0.00
86, 14329.43, 26349.02, -35555.19, -48850.07, -32904.79, -46159.93, -33297.91, -47737.56, 0.07, 0.95, 0.22
87, 14371.43, 26364.62, -35520.43, -48788.38, -32938.42, -46093.32, -33229.60, -47664.67, 0.00, 0.00, 0.00
88, 14475.66, 26441.93, -35405.99, -48669.76, -32872.84, -45970.72, -33104.32, -47539.07, 0.00, 0.00, 0.00
89, 14461.87, 26449.80, -35409.68, -48708.27, -32822.80, -46010.26, -33142.63, -47582.21, 0.00, 0.00, 0.00
90, 14356.50, 26373.69, -35519.76, -48836.46, -32881.58, -46138.18, -33272.11, -47713.39, 0.00, 0.00, 0.00
91, 14346.49, 26340.50, -35540.32, -48831.43, -32951.41, -46131.12, -33266.59, -47703.98, 0.00, 0.00, 0.00
92, 14448.30, 26406.51, -35434.58, -48708.09, -32909.07, -46008.14, -33143.68, -47578.64, 0.00, 0.00, 0.00
93, 14478.43, 26452.98, -35388.24, -48690.17, -32829.73, -45995.51, -33133.29, -47572.82, 0.00, 0.00, 0.00
94, 14383.48, 26395.98, -35483.59, -48805.34, -32863.93, -46117.84, -33257.00, -47696.39, 0.00, 0.00, 0.00
95, 14334.87, 26336.23, -35545.78, -48840.28, -32956.73, -46151.52, -33292.97, -47729.78, 0.00, 0.00, 0.00
96, 14431.96, 26393.97, -35446.00, -48716.21, -32931.11, -46023.49, -33165.99, -47602.82, 0.08, 0.96, 0.22
97, 14464.98, 26431.05, -35398.10, -48695.80, -32862.25, -46001.12, -33141.20, -47581.99, 0.00, 0.00, 0.00
98, 14376.78, 26379.95, -35487.21, -48814.00, -32879.82, -46120.54, -33256.06, -47699.54, 0.00, 0.00, 0.00
99, 14346.74, 26347.74, -35529.91, -48841.15, -32936.21, -46145.00, -33277.75, -47721.09, 0.00, 0.00, 0.00
100, 14409.25, 26369.00, -35467.50, -48753.96, -32941.53, -46055.12, -33181.97, -47626.85, 0.00, 0.00, 0.00
101, 14449.53, 26405.75, -35410.95, -48713.77, -32881.18, -46013.61, -33138.09, -47588.20, 0.00, 0.00, 0.00
102, 14388.55, 26379.17, -35468.17, -48803.18, -32866.99, -46108.83, -33230.54, -47687.91, 0.00, 0.00, 0.00
103, 14312.25, 26309.86, -35556.17, -48882.08, -32950.36, -46186.88, -33312.86, -47769.61, 0.00, 0.00, 0.00
104, 14371.93, 26333.77, -35496.56, -48792.40, -32967.97, -46089.14, -33218.09, -47672.27, 0.00, 0.00, 0.00
105, 14454.63, 26406.10, -35396.38, -48703.53, -32883.19, -45997.59, -33124.77, -47581.41, 0.07, 0.96, 0.22
106, 14375.10, 26359.39, -35468.44, -48811.92, -32877.67, -46111.51, -33231.72, -47692.25, 0.00, 0.00, 0.00
107, 14281.85, 26280.91, -35578.10, -48919.07, -32958.90, -46216.61, -33335.21, -47797.35, 0.00, 0.00, 0.00
108, 14316.25, 26281.07, -35550.63, -48860.53, -32998.10, -46152.62, -33268.60, -47730.16, 0.00, 0.00, 0.00
109, 14407.24, 26350.29, -35452.08, -48758.09, -32933.55, -46048.79, -33161.18, -47622.63, 0.00, 0.00, 0.00
110, 14367.88, 26338.89, -35483.93, -48820.54, -32897.52, -46115.47, -33223.27, -47690.02, 0.00, 0.00, 0.00
111, 14253.73, 26250.71, -35610.30, -48949.87, -32980.76, -46248.37, -33354.64, -47821.98, 0.00, 0.00, 0.00
112, 14307.71, 26277.00, -35572.04, -48876.42, -33009.66, -46170.90, -33278.71, -47743.46, 0.00, 0.00, 0.00
113, 14412.40, 26352.39, -35456.95, -48755.12, -32946.70, -46046.34, -33155.17, -47618.87, 0.00, 0.00, 0.00
114, 14393.12, 26353.82, -35465.27, -48793.12, -32903.13, -46085.63, -33197.52, -47666.14, 0.00, 0.00, 0.00
115, 14300.71, 26290.08, -35568.46, -48907.11, -32951.30, -46202.08, -33314.45, -47784.21, 0.08, 0.96, 0.22
116, 14305.63, 26275.14, -35581.88, -48887.73, -33005.81, -46184.18, -33290.26, -47757.94, 0.00, 0.00, 0.00
117, 14405.72, 26340.99, -35476.22, -48763.68, -32962.12, -46057.60, -33163.64, -47628.05, 0.00, 0.00, 0.00
118, 14422.51, 26372.80, -35445.37, -48756.75, -32894.66, -46053.18, -33157.56, -47626.92, 0.00, 0.00, 0.00
119, 14329.39, 26315.65, -35540.37, -48872.27, -32919.49, -46169.92, -33273.12, -47744.15, 0.00, 0.00, 0.00
120, 14286.36, 26264.60, -35594.50, -48904.09, -33000.72, -46198.95, -33305.91, -47774.75, 0.00, 0.00, 0.00
121, 14404.89, 26347.95, -35475.19, -48755.57, -32958.54, -46045.89, -33151.50, -47620.90, 0.00, 0.00, 0.00
122, 14454.16, 26404.76, -35408.70, -48711.20, -32869.65, -45999.75, -33101.99, -47577.34, 0.00, 0.00, 0.00
123, 14346.89, 26336.59, -35515.56, -48847.88, -32900.25, -46140.23, -33243.28, -47720.97, 0.00, 0.00, 0.00
124, 14274.81, 26264.60, -35602.82, -48921.35, -32996.67, -46211.00, -33316.93, -47792.48, 0.00, 0.00, 0.00
125, 14349.37, 26301.52, -35529.77, -48823.67, -32997.41, -46107.60, -33211.47, -47685.23, 0.07, 0.96, 0.22
126, 14422.19, 26368.75, -35444.97, -48756.48, -32917.43, -46041.22, -33142.25, -47618.31, 0.00, 0.00, 0.00
127, 14354.25, 26338.31, -35506.50, -48855.57, -32906.89, -46142.61, -33242.65, -47721.33, 0.00, 0.00, 0.00
128, 14281.56, 26277.51, -35591.71, -48936.48, -32983.44, -46220.84, -33318.61, -47796.30, 0.00, 0.00, 0.00
129, 14344.54, 26304.36, -35532.59, -48847.43, -33001.54, -46126.60, -33225.18, -47700.61, 0.00, 0.00, 0.00
130, 14437.39, 26380.89, -35426.44, -48746.47, -32917.88, -46024.77, -33126.71, -47604.23, 0.00, 0.00, 0.00
131, 14383.55, 26357.98, -35473.87, -48827.65, -32897.21, -46112.90, -33214.31, -47693.57, 0.00, 0.00, 0.00
132, 14285.42, 26279.01, -35584.24, -48939.07, -32979.98, -46228.95, -33327.55, -47806.40, 0.00, 0.00, 0.00
133, 14311.04, 26273.56, -35565.31, -48889.32, -33030.56, -46178.79, -33274.01, -47749.47, 0.00, 0.00, 0.00
134, 14414.82, 26354.23, -35455.63, -48772.98, -32965.07, -46063.50, -33159.71, -47636.71, 0.00, 0.00, 0.00
135, 14400.71, 26366.79, -35463.75, -48807.80, -32911.13, -46102.73, -33200.14, -47681.50, 0.07, 0.95, 0.23
136, 14310.03, 26302.71, -35564.55, -48911.23, -32955.77, -46209.08, -33302.71, -47786.82, 0.00, 0.00, 0.00
137, 14321.57, 26291.55, -35561.89, -48875.98, -33013.68, -46170.97, -33266.86, -47745.61, 0.00, 0.00, 0.00
138, 14418.98, 26358.05, -35459.36, -48762.03, -32970.16, -46052.46, -33153.16, -47631.25, 0.00, 0.00, 0.00
139, 14414.04, 26372.62, -35454.71, -48787.69, -32920.07, -46082.48, -33180.52, -47664.87, 0.00, 0.00, 0.00
140, 14301.25, 26290.72, -35574.41, -48924.99, -32974.25, -46222.20, -33312.43, -47808.43, 0.00, 0.00, 0.00
141, 14257.66, 26232.14, -35633.53, -48956.20, -33071.50, -46249.78, -33340.78, -47834.12, 0.00, 0.00, 0.00
142, 14377.63, 26317.77, -35508.34, -48811.89, -33019.40, -46107.40, -33194.35, -47682.55, 0.00, 0.00, 0.00
143, 14420.52, 26370.10, -35449.89, -48780.51, -32930.51, -46082.97, -33168.33, -47658.77, 0.00, 0.00, 0.00
144, 14324.83, 26309.90, -35548.73, -48901.01, -32964.06, -46209.08, -33298.18, -47790.80, 0.00, 0.00, 0.00
145, 14264.12, 26242.38, -35625.48, -48951.61, -33059.26, -46258.92, -33351.06, -47844.22, 0.07, 0.96, 0.23
146, 14371.77, 26310.44, -35515.58, -48811.83, -33026.58, -46115.89, -33209.37, -47701.01, 0.00, 0.00, 0.00
147, 14395.98, 26337.80, -35476.66, -48791.96, -32971.04, -46096.43, -33187.80, -47678.55, 0.00, 0.00, 0.00
148, 14320.05, 26298.57, -35554.34, -48897.93, -32979.11, -46204.00, -33290.53, -47789.05, 0.00, 0.00, 0.00
149, 14250.38, 26233.10, -35636.57, -48970.01, -33058.81, -46272.98, -33354.25, -47854.12, 0.00, 0.00, 0.00
150, 14331.76, 26276.67, -35561.89, -48866.68, -33057.80, -46163.93, -33240.38, -47740.38, 0.00, 0.00, 0.00
151, 14414.75, 26351.72, -35470.23, -48786.08, -32967.44, -46082.79, -33155.77, -47661.74, 0.00, 0.00, 0.00
152, 14330.57, 26302.93, -35549.38, -48901.86, -32970.39, -46202.66, -33271.96, -47785.61, 0.00, 0.00, 0.00
153, 14239.22, 26225.03, -35656.13, -49001.88, -33072.98, -46306.27, -33377.34, -47890.27, 0.00, 0.00, 0.00
154, 14293.69, 26246.27, -35606.98, -48916.88, -33100.38, -46220.50, -33293.68, -47801.95, 0.00, 0.00, 0.00
155, 14405.72, 26340.57, -35482.81, -48796.25, -33012.34, -46102.30, -33176.87, -47688.16, 0.07, 0.96, 0.23
156, 14370.88, 26335.29, -35507.69, -48858.25, -32972.82, -46168.98, -33244.78, -47762.23, 0.00, 0.00, 0.00
157, 14262.71, 26248.37, -35623.52, -48974.84, -33053.29, -46289.48, -33364.67, -47883.36, 0.00, 0.00, 0.00
158, 14303.19, 26258.25, -35591.87, -48907.61, -33089.50, -46220.14, -33295.80, -47810.25, 0.00, 0.00, 0.00
159, 14408.22, 26337.71, -35475.30, -48787.40, -33017.59, -46098.66, -33172.67, -47685.12, 0.00, 0.00, 0.00
160, 14386.59, 26340.32, -35487.44, -48828.32, -32971.50, -46145.27, -33218.60, -47735.48, 0.00, 0.00, 0.00
161, 14272.88, 26253.51, -35612.86, -48955.26, -33044.62, -46275.82, -33353.81, -47870.02, 0.00, 0.00, 0.00
162, 14289.58, 26248.84, -35607.91, -48916.05, -33091.67, -46232.10, -33312.12, -47827.73, 0.00, 0.00, 0.00
163, 14370.00, 26299.82, -35518.64, -48817.71, -33055.48, -46130.78, -33210.00, -47727.75, 0.00, 0.00, 0.00
164, 14375.19, 26323.40, -35503.49, -48830.60, -33002.71, -46142.16, -33221.93, -47740.55, 0.00, 0.00, 0.00
165, 14280.22, 26259.97, -35600.09, -48950.54, -33037.82, -46263.93, -33341.58, -47864.49, 0.08, 0.95, 0.23
166, 14259.43, 26221.41, -35630.82, -48961.74, -33107.27, -46273.18, -33346.12, -47871.11, 0.00, 0.00, 0.00
167, 14360.88, 26286.72, -35522.31, -48836.01, -33066.19, -46144.62, -33216.41, -47739.99, 0.00, 0.00, 0.00
168, 14351.67, 26287.28, -35512.45, -48856.24, -33025.08, -46169.34, -33238.43, -47765.79, 0.00, 0.00, 0.00
169, 14237.03, 26208.16, -35623.76, -48994.35, -33075.15, -46311.54, -33375.09, -47910.00, 0.00, 0.00, 0.00
170, 14207.95, 26174.52, -35666.86, -49016.12, -33136.17, -46327.21, -33392.07, -47927.01, 0.00, 0.00, 0.00
171, 14305.27, 26232.92, -35571.70, -48896.61, -33110.24, -46199.54, -33264.04, -47797.44, 0.00, 0.00, 0.00
172, 14378.14, 26304.72, -35487.73, -48832.64, -33019.27, -46136.73, -33198.20, -47737.25, 0.00, 0.00, 0.00
173, 14282.07, 26247.27, -35582.23, -48956.13, -33035.90, -46264.91, -33326.56, -47869.10, 0.00, 0.00, 0.00
174, 14212.60, 26183.37, -35669.83, -49026.49, -33124.90, -46336.59, -33392.03, -47939.66, 0.00, 0.00, 0.00
175, 14292.35, 26225.77, -35598.53, -48918.85, -33127.45, -46222.82, -33273.95, -47828.73, 0.08, 0.95, 0.23
176, 14368.06, 26290.79, -35512.56, -48840.75, -33049.00, -46144.26, -33193.52, -47753.23, 0.00, 0.00, 0.00
177, 14282.12, 26238.69, -35592.22, -48954.95, -33052.89, -46265.74, -33309.06, -47874.51, 0.00, 0.00, 0.00
178, 14194.32, 26167.07, -35689.14, -49048.44, -33136.53, -46361.27, -33402.98, -47971.18, 0.00, 0.00, 0.00
179, 14259.27, 26199.33, -35629.82, -48954.14, -33151.30, -46263.01, -33307.83, -47875.36, 0.00, 0.00, 0.00
180, 14357.26, 26276.96, -35521.88, -48848.57, -33073.68, -46152.80, -33200.92, -47770.01, 0.00, 0.00, 0.00
181, 14318.95, 26267.63, -35556.02, -48916.88, -33035.48, -46222.89, -33269.21, -47843.57, 0.00, 0.00, 0.00
182, 14219.93, 26189.94, -35671.06, -49034.68, -33102.29, -46341.07, -33381.57, -47957.61, 0.00, 0.00, 0.00
183, 14242.29, 26184.55, -35659.52, -48990.91, -33151.26, -46292.72, -33330.54, -47905.29, 0.00, 0.00, 0.00
184, 14316.34, 26234.60, -35576.53, -48902.24, -33113.97, -46201.73, -33238.59, -47814.49, 0.00, 0.00, 0.00
185, 14299.71, 26243.16, -35584.67, -48940.02, -33070.99, -46243.75, -33279.18, -47860.89, 0.07, 0.96, 0.23
186, 14190.79, 26163.77, -35701.52, -49066.12, -33131.43, -46370.86, -33408.52, -47993.39, 0.00, 0.00, 0.00
187, 14211.33, 26160.73, -35693.10, -49025.18, -33180.94, -46328.39, -33369.43, -47951.33, 0.00, 0.00, 0.00
188, 14321.95, 26237.91, -35572.98, -48891.91, -33122.51, -46196.36, -33236.86, -47817.73, 0.00, 0.00, 0.00
189, 14304.62, 26238.11, -35572.98, -48924.08, -33082.39, -46233.42, -33272.00, -47857.86, 0.00, 0.00, 0.00
190, 14206.88, 26175.46, -35675.11, -49046.16, -33125.93, -46357.52, -33396.03, -47983.92, 0.00, 0.00, 0.00
191, 14189.94, 26148.54, -35706.60, -49054.19, -33193.68, -46360.69, -33399.74, -47982.58, 0.00, 0.00, 0.00
192, 14295.53, 26218.08, -35595.89, -48927.30, -33157.52, -46226.31, -33264.51, -47845.58, 0.00, 0.00, 0.00
193, 14315.60, 26241.75, -35559.68, -48920.50, -33098.48, -46218.62, -33255.08, -47838.63, 0.00, 0.00, 0.00
194, 14229.79, 26188.98, -35644.88, -49033.47, -33118.63, -46337.49, -33370.24, -47958.53, 0.07, 0.95, 0.22
195, 14172.55, 26130.28, -35713.82, -49084.34, -33198.93, -46387.96, -33419.99, -48010.07, 0.00, 0.00, 0.00
196, 14250.49, 26170.56, -35640.88, -48977.72, -33198.82, -46276.36, -33305.37, -47896.61, 0.00, 0.00, 0.00
197, 14329.79, 26245.93, -35549.80, -48899.11, -33100.29, -46198.04, -33228.68, -47818.54, 0.00, 0.00, 0.00
198, 14252.68, 26204.04, -35625.08, -49000.52, -33094.19, -46302.91, -33333.00, -47927.19, 0.00, 0.00, 0.00
199, 14175.68, 26135.09, -35715.11, -49079.63, -33182.73, -46381.70, -33418.63, -48009.76, 0.00, 0.00, 0.00
200, 14228.85, 26152.52, -35669.32, -49000.97, -33215.85, -46302.40, -33338.65, -47924.48, 0.00, 0.00, 0.00
201, 14324.70, 26235.87, -35566.63, -48903.40, -33125.71, -46206.69, -33241.65, -47828.02, 0.00, 0.00, 0.00
202, 14260.95, 26206.39, -35625.82, -48997.84, -33115.43, -46306.22, -33339.57, -47930.81, 0.00, 0.00, 0.00
203, 14173.71, 26132.50, -35725.44, -49096.81, -33193.23, -46408.07, -33437.96, -48030.45, 0.00, 0.00, 0.00
204, 14220.78, 26144.86, -35683.20, -49022.87, -33224.10, -46329.55, -33361.52, -47948.67, 0.07, 0.95, 0.22
205, 14308.54, 26207.96, -35581.74, -48922.96, -33153.98, -46230.54, -33258.84, -47848.42, 0.00, 0.00, 0.00
206, 14263.56, 26189.45, -35616.81, -48989.90, -33125.66, -46302.80, -33327.70, -47921.96, 0.00, 0.00, 0.00
207, 14159.96, 26110.17, -35730.76, -49106.16, -33198.08, -46421.15, -33446.64, -48039.73, 0.00, 0.00, 0.00
208, 14173.00, 26098.10, -35728.64, -49070.44, -33254.28, -46382.19, -33406.02, -48000.70, 0.00, 0.00, 0.00
209, 14249.42, 26147.54, -35641.78, -48975.84, -33215.34, -46288.07, -33309.84, -47905.04, 0.00, 0.00, 0.00
210, 14242.64, 26162.09, -35638.16, -49002.46, -33168.80, -46321.02, -33342.52, -47938.61, 0.00, 0.00, 0.00
211, 14166.83, 26115.84, -35720.14, -49100.95, -33200.77, -46422.96, -33444.60, -48042.26, 0.00, 0.00, 0.00
212, 14152.48, 26082.81, -35747.77, -49099.98, -33265.41, -46412.86, -33438.72, -48032.42, 0.00, 0.00, 0.00
213, 14262.11, 26158.60, -35634.69, -48971.33, -33207.25, -46279.91, -33297.48, -47893.66, 0.00, 0.00, 0.00
214, 14288.84, 26200.27, -35593.36, -48960.27, -33128.21, -46273.36, -33282.73, -47879.51, 0.07, 0.95, 0.23
215, 14171.30, 26116.63, -35708.72, -49101.37, -33181.61, -46414.98, -33428.87, -48024.64, 0.00, 0.00, 0.00
216, 14137.46, 26072.21, -35758.18, -49123.75, -33262.12, -46431.77, -33451.87, -48045.57, 0.00, 0.00, 0.00
217, 14231.15, 26127.29, -35660.55, -49005.35, -33234.11, -46311.56, -33329.02, -47922.61, 0.00, 0.00, 0.00
218, 14278.54, 26178.96, -35599.06, -48966.23, -33159.86, -46275.84, -33291.60, -47887.79, 0.00, 0.00, 0.00
219, 14211.24, 26148.43, -35665.34, -49058.52, -33156.44, -46373.86, -33388.39, -47988.55, 0.00, 0.00, 0.00
220, 14140.58, 26077.80, -35749.85, -49127.03, -33248.64, -46441.83, -33457.18, -48056.61, 0.00, 0.00, 0.00
221, 14208.96, 26108.89, -35689.70, -49031.93, -33261.34, -46341.73, -33362.39, -47957.21, 0.00, 0.00, 0.00
222, 14269.62, 26166.20, -35618.22, -48971.20, -33188.00, -46280.74, -33305.86, -47901.51, 0.00, 0.00, 0.00
223, 14196.44, 26127.04, -35687.33, -49071.11, -33186.33, -46382.62, -33407.00, -48005.91, 0.00, 0.00, 0.00
224, 14130.66, 26068.06, -35767.57, -49141.63, -33257.29, -46452.60, -33475.36, -48075.52, 0.07, 0.96, 0.24
225, 14189.38, 26091.95, -35708.25, -49053.41, -33275.02, -46360.82, -33384.54, -47981.91, 0.00, 0.00, 0.00
226, 14238.62, 26130.04, -35641.02, -48995.74, -33223.50, -46305.93, -33325.13, -47926.54, 0.00, 0.00, 0.00
227, 14184.15, 26108.24, -35689.52, -49077.03, -33202.53, -46395.71, -33409.13, -48018.27, 0.00, 0.00, 0.00
228, 14094.47, 26036.27, -35793.75, -49179.51, -33278.93, -46500.25, -33515.46, -48125.76, 0.00, 0.00, 0.00
229, 14154.24, 26063.68, -35742.98, -49094.29, -33300.39, -46409.17, -33428.24, -48036.56, 0.00, 0.00, 0.00
230, 14254.51, 26142.22, -35629.26, -48984.14, -33224.84, -46299.31, -33313.98, -47925.76, 0.00, 0.00, 0.00
231, 14225.77, 26138.87, -35653.00, -49041.02, -33187.24, -46361.23, -33373.54, -47991.41, 0.00, 0.00, 0.00
232, 14167.34, 26102.77, -35723.90, -49117.18, -33216.52, -46439.57, -33451.53, -48069.46, 0.00, 0.00, 0.00
233, 14182.16, 26092.22, -35715.89, -49083.00, -33265.50, -46398.91, -33414.43, -48027.21, 0.00, 0.00, 0.00
234, 14248.14, 26129.63, -35637.82, -48997.08, -33236.53, -46305.59, -33320.66, -47935.19, 0.07, 0.96, 0.23
235, 14240.39, 26141.04, -35632.23, -49021.04, -33187.04, -46334.72, -33346.50, -47966.30, 0.00, 0.00, 0.00
236, 14150.15, 26079.41, -35726.04, -49135.21, -33227.03, -46453.94, -33463.85, -48086.89, 0.00, 0.00, 0.00
237, 14147.02, 26055.09, -35745.87, -49128.15, -33291.89, -46442.57, -33454.04, -48075.94, 0.00, 0.00, 0.00
238, 14263.09, 26134.20, -35626.89, -48991.25, -33238.83, -46303.07, -33314.94, -47937.16, 0.00, 0.00, 0.00
239, 14263.34, 26144.83, -35614.66, -49008.81, -33189.84, -46325.15, -33336.08, -47959.33, 0.00, 0.00, 0.00
240, 14164.72, 26080.39, -35716.34, -49133.20, -33226.18, -46450.30, -33459.53, -48087.63, 0.00, 0.00, 0.00
241, 14121.67, 26028.54, -35774.61, -49170.17, -33304.72, -46487.85, -33489.21, -48121.36, 0.00, 0.00, 0.00
242, 14222.53, 26091.75, -35673.63, -49045.65, -33277.93, -46360.63, -33362.82, -47990.29, 0.00, 0.00, 0.00
243, 14245.46, 26119.04, -35633.95, -49030.70, -33220.97, -46346.18, -33347.66, -47977.41, 0.00, 0.00, 0.00
244, 14161.26, 26071.07, -35714.84, -49143.95, -33234.23, -46462.55, -33459.58, -48094.47, 0.07, 0.96, 0.23
245, 14098.32, 26011.82, -35789.79, -49205.66, -33313.64, -46521.89, -33519.37, -48155.25, 0.00, 0.00, 0.00
246, 14181.91, 26056.59, -35708.34, -49092.16, -33307.09, -46401.44, -33404.10, -48038.57, 0.00, 0.00, 0.00
247, 14251.83, 26117.97, -35622.76, -49022.40, -33225.33, -46329.62, -33334.36, -47968.83, 0.00, 0.00, 0.00
248, 14186.16, 26087.73, -35681.03, -49114.74, -33207.56, -46421.60, -33427.34, -48065.77, 0.00, 0.00, 0.00
249, 14092.53, 26005.61, -35792.20, -49213.27, -33291.07, -46518.88, -33522.43, -48159.94, 0.00, 0.00, 0.00
250, 14155.76, 26031.24, -35733.66, -49122.32, -33310.71, -46424.48, -33431.44, -48063.56, 0.00, 0.00, 0.00
251, 14224.40, 26083.66, -35649.18, -49046.01, -33257.47, -46351.70, -33355.29, -47990.51, 0.00, 0.00, 0.00
252, 14186.52, 26076.33, -35681.07, -49106.31, -33222.43, -46418.67, -33418.50, -48061.57, 0.00, 0.00, 0.00
253, 14090.67, 25999.50, -35790.71, -49212.95, -33295.85, -46530.34, -33530.72, -48171.88, 0.00, 0.00, 0.00
254, 14142.69, 26019.75, -35749.96, -49137.40, -33326.61, -46453.47, -33454.84, -48093.73, 0.07, 0.96, 0.23
255, 14218.53, 26072.30, -35661.94, -49046.48, -33272.54, -46359.77, -33362.70, -48002.58, 0.00, 0.00, 0.00
0, 14196.35, 26074.96, -35677.34, -49092.30, -33233.55, -46410.91, -33411.21, -48053.25, 0.00, 0.00, 0.00
1, 14139.31, 26046.20, -35743.30, -49166.93, -33257.14, -46488.21, -33488.81, -48130.10, 0.00, 0.00, 0.00
2, 14147.22, 26030.71, -35746.43, -49140.09, -33306.89, -46457.07, -33459.80, -48098.00, 0.00, 0.00, 0.00
3, 14217.74, 26072.17, -35667.39, -49049.88, -33276.92, -46364.76, -33367.67, -48004.04, 0.00, 0.00, 0.00
4, 14207.37, 26081.87, -35666.10, -49075.11, -33232.82, -46391.69, -33395.43, -48033.61, 0.00, 0.00, 0.00
5, 14103.91, 26011.33, -35775.84, -49203.05, -33279.15, -46523.48, -33522.88, -48162.15, 0.00, 0.00, 0.00
6, 14066.20, 25959.03, -35827.54, -49226.18, -33364.65, -46545.32, -33544.31, -48184.75, 0.00, 0.00, 0.00
7, 14171.18, 26028.49, -35718.80, -49093.97, -33323.57, -46410.07, -33408.79, -48049.30, 0.00, 0.00, 0.00
8, 14209.29, 26075.05, -35667.55, -49065.00, -33239.79, -46383.96, -33382.51, -48023.86, 0.07, 0.96, 0.23
9, 14107.44, 26004.04, -35773.03, -49192.37, -33273.43, -46519.70, -33516.46, -48161.91, 0.00, 0.00, 0.00
10, 14080.24, 25969.42, -35813.86, -49209.75, -33337.22, -46540.49, -33536.78, -48183.79, 0.00, 0.00, 0.00
11, 14187.50, 26038.48, -35703.42, -49071.51, -33305.06, -46399.05, -33400.39, -48044.40, 0.00, 0.00, 0.00
12, 14240.16, 26093.38, -35632.32, -49020.77, -33228.26, -46344.48, -33356.65, -48000.86, 0.00, 0.00, 0.00
13, 14153.33, 26044.01, -35715.45, -49133.34, -33239.66, -46458.99, -33476.34, -48122.10, 0.00, 0.00, 0.00
14, 14068.61, 25964.32, -35813.28, -49218.16, -33328.46, -46544.91, -33554.37, -48201.89, 0.00, 0.00, 0.00
15, 14137.95, 25996.40, -35749.18, -49123.03, -33345.11, -46446.07, -33453.70, -48097.46, 0.00, 0.00, 0.00
16, 14192.75, 26042.80, -35681.34, -49065.59, -33282.04, -46386.06, -33393.33, -48040.47, 0.00, 0.00, 0.00
17, 14112.87, 25996.33, -35753.56, -49170.91, -33283.29, -46495.11, -33501.22, -48149.16, 0.00, 0.00, 0.00
18, 14028.49, 25924.65, -35849.85, -49263.00, -33360.96, -46589.30, -33594.45, -48241.03, 0.08, 0.96, 0.23
19, 14104.08, 25964.37, -35783.51, -49161.41, -33371.22, -46483.94, -33491.18, -48135.89, 0.00, 0.00, 0.00
20, 14209.76, 26052.88, -35664.53, -49045.45, -33271.55, -46365.65, -33374.30, -48019.73, 0.00, 0.00, 0.00
21, 14197.20, 26070.54, -35668.18, -49082.42, -33215.83, -46409.75, -33414.96, -48062.95, 0.00, 0.00, 0.00
22, 14080.17, 25975.92, -35794.04, -49210.89, -33306.63, -46546.03, -33551.24, -48201.38, 0.00, 0.00, 0.00
23, 14112.06, 25977.49, -35774.43, -49153.54, -33361.12, -46491.09, -33498.65, -48147.22, 0.00, 0.00, 0.00
24, 14210.52, 26050.44, -35666.07, -49035.70, -33302.18, -46373.52, -33386.33, -48026.99, 0.00, 0.00, 0.00
25, 14185.44, 26049.19, -35678.90, -49078.93, -33259.39, -46425.31, -33436.69, -48080.14, 0.00, 0.00, 0.00
26, 14075.85, 25967.03, -35794.71, -49206.96, -33322.72, -46558.37, -33567.98, -48217.94, 0.00, 0.00, 0.00
27, 14069.22, 25936.83, -35814.58, -49196.25, -33390.96, -46540.27, -33552.38, -48203.41, 0.08, 0.96, 0.23
28, 14175.90, 26011.60, -35704.16, -49070.86, -33336.53, -46405.89, -33421.78, -48072.36, 0.00, 0.00, 0.00
29, 14190.63, 26044.05, -35677.27, -49072.40, -33266.86, -46411.88, -33426.05, -48078.71, 0.00, 0.00, 0.00
30, 14092.44, 25981.22, -35779.98, -49191.02, -33311.21, -46538.72, -33550.23, -48203.73, 0.00, 0.00, 0.00
31, 14076.52, 25953.64, -35814.36, -49194.22, -33377.39, -46541.38, -33552.85, -48203.48, 0.00, 0.00, 0.00
32, 14185.47, 26024.76, -35704.18, -49062.03, -33334.99, -46409.28, -33414.58, -48063.98, 0.00, 0.00, 0.00
33, 14218.48, 26062.89, -35659.21, -49043.19, -33268.04, -46395.09, -33398.55, -48050.50, 0.00, 0.00, 0.00
34, 14107.79, 25986.99, -35768.64, -49182.00, -33305.57, -46536.75, -33540.16, -48198.16, 0.00, 0.00, 0.00
35, 14034.41, 25910.61, -35856.62, -49247.42, -33414.76, -46602.56, -33607.79, -48265.37, 0.00, 0.00, 0.00
36, 14133.81, 25973.29, -35755.77, -49115.92, -33391.29, -46467.38, -33475.56, -48126.75, 0.00, 0.00, 0.00
37, 14201.38, 26040.41, -35674.30, -49049.67, -33302.78, -46402.33, -33409.17, -48061.66, 0.07, 0.95, 0.23
38, 14124.02, 26000.58, -35752.60, -49152.47, -33305.51, -46512.68, -33517.00, -48173.66, 0.00, 0.00, 0.00
39, 14039.11, 25922.64, -35852.04, -49238.79, -33395.23, -46598.94, -33605.15, -48264.05, 0.00, 0.00, 0.00
40, 14097.27, 25943.96, -35798.57, -49153.03, -33422.52, -46508.86, -33516.30, -48173.71, 0.00, 0.00, 0.00
41, 14160.12, 25993.92, -35718.89, -49085.39, -33353.43, -46437.00, -33448.13, -48103.84, 0.00, 0.00, 0.00
42, 14080.17, 25946.42, -35792.16, -49192.66, -33357.38, -46548.09, -33555.42, -48216.89, 0.00, 0.00, 0.00
43, 13983.12, 25864.05, -35900.63, -49296.70, -33446.46, -46656.52, -33659.80, -48323.02, 0.00, 0.00, 0.00
44, 14057.97, 25903.57, -35835.01, -49195.79, -33452.27, -46554.46, -33556.56, -48217.90, 0.00, 0.00, 0.00
45, 14171.70, 25996.11, -35715.16, -49074.30, -33358.26, -46435.03, -33435.10, -48098.20, 0.00, 0.00, 0.00
46, 14147.80, 26000.87, -35730.34, -49122.41, -33313.13, -46483.58, -33491.25, -48158.35, 0.00, 0.00, 0.00
47, 14044.14, 25920.67, -35846.77, -49240.64, -33391.07, -46600.12, -33615.01, -48282.89, 0.07, 0.96, 0.22
48, 14071.85, 25920.27, -35831.50, -49192.25, -33437.34, -46553.70, -33562.20, -48228.54, 0.00, 0.00, 0.00
49, 14139.67, 25964.19, -35750.81, -49108.59, -33400.41, -46471.20, -33475.74, -48143.55, 0.00, 0.00, 0.00
50, 14119.82, 25966.83, -35759.28, -49146.03, -33360.89, -46512.28, -33520.33, -48191.72, 0.00, 0.00, 0.00
51, 14012.71, 25888.55, -35875.51, -49276.18, -33422.70, -46647.78, -33654.06, -48326.44, 0.00, 0.00, 0.00
52, 14040.49, 25895.34, -35863.15, -49233.61, -33463.02, -46602.02, -33604.98, -48276.39, 0.00, 0.00, 0.00
53, 14143.65, 25964.99, -35753.16, -49108.03, -33405.75, -46468.76, -33469.70, -48142.79, 0.00, 0.00, 0.00
54, 14143.47, 25979.37, -35740.59, -49122.98, -33351.75, -46483.00, -33485.55, -48162.33, 0.00, 0.00, 0.00
55, 14034.64, 25906.14, -35849.54, -49253.79, -33392.81, -46616.21, -33616.93, -48299.19, 0.00, 0.00, 0.00
56, 14009.71, 25870.82, -35888.34, -49267.82, -33463.73, -46627.05, -33627.26, -48312.09, 0.00, 0.00, 0.00
57, 14112.24, 25937.72, -35784.61, -49141.83, -33429.07, -46496.12, -33496.82, -48182.56, 0.07, 0.96, 0.23
58, 14143.47, 25974.89, -35737.51, -49120.88, -33359.44, -46472.52, -33474.15, -48159.25, 0.00, 0.00, 0.00
59, 14041.12, 25906.27, -35839.70, -49253.83, -33387.63, -46606.16, -33608.11, -48299.64, 0.00, 0.00, 0.00
60, 14000.66, 25864.25, -35893.57, -49294.91, -33457.66, -46641.99, -33643.82, -48336.03, 0.00, 0.00, 0.00
61, 14102.79, 25927.15, -35791.73, -49170.59, -33433.27, -46511.16, -33510.27, -48203.08, 0.00, 0.00, 0.00
62, 14168.90, 25989.40, -35713.28, -49112.28, -33352.58, -46449.89, -33444.80, -48142.06, 0.00, 0.00, 0.00
63, 14089.78, 25947.78, -35787.69, -49218.41, -33351.06, -46555.11, -33551.13, -48251.76, 0.00, 0.00, 0.00
64, 14035.17, 25901.78, -35857.32, -49276.18, -33414.94, -46612.97, -33608.62, -48310.16, 0.00, 0.00, 0.00
65, 14095.30, 25927.15, -35804.14, -49192.63, -33431.01, -46523.84, -33510.74, -48216.49, 0.00, 0.00, 0.00
66, 14165.26, 25986.16, -35719.41, -49115.63, -33361.86, -46442.43, -33426.56, -48134.97, 0.00, 0.00, 0.00
67, 14117.50, 25972.01, -35754.68, -49188.54, -33337.78, -46517.18, -33504.01, -48217.32, 0.08, 0.95, 0.23
68, 14060.21, 25931.46, -35827.10, -49257.45, -33393.41, -46586.13, -33574.60, -48290.65, 0.00, 0.00, 0.00
69, 14103.26, 25942.86, -35794.95, -49191.98, -33421.29, -46519.43, -33506.58, -48220.85, 0.00, 0.00, 0.00
70, 14180.48, 25998.54, -35708.43, -49103.74, -33369.81, -46428.44, -33416.59, -48132.00, 0.00, 0.00, 0.00
71, 14148.79, 25994.74, -35731.21, -49163.13, -33329.38, -46489.77, -33474.46, -48196.06, 0.00, 0.00, 0.00
72, 14044.25, 25917.43, -35846.32, -49288.48, -33400.21, -46613.55, -33596.39, -48322.14, 0.00, 0.00, 0.00
73, 14057.48, 25904.55, -35845.29, -49258.08, -33457.45, -46581.35, -33558.10, -48286.65, 0.00, 0.00, 0.00
74, 14170.83, 25988.57, -35723.74, -49130.63, -33392.25, -46452.62, -33425.94, -48156.32, 0.00, 0.00, 0.00
75, 14160.46, 26001.31, -35724.12, -49159.62, -33334.54, -46478.57, -33453.59, -48187.45, 0.00, 0.00, 0.00
76, 14052.36, 25923.98, -35840.26, -49291.34, -33391.89, -46611.43, -33581.66, -48321.83, 0.00, 0.00, 0.00
77, 14037.70, 25891.79, -35864.38, -49291.23, -33462.44, -46608.79, -33575.05, -48312.20, 0.07, 0.95, 0.23
78, 14149.79, 25967.23, -35747.12, -49158.66, -33415.21, -46470.88, -33438.07, -48172.88, 0.00, 0.00, 0.00
79, 14170.45, 25999.30, -35715.65, -49154.14, -33344.91, -46466.86, -33433.70, -48174.33, 0.00, 0.00, 0.00
80, 14068.01, 25932.63, -35819.96, -49282.38, -33376.38, -46592.97, -33560.67, -48305.00, 0.00, 0.00, 0.00
81, 14057.73, 25910.97, -35845.60, -49287.38, -33436.06, -46595.05, -33562.80, -48307.50, 0.00, 0.00, 0.00
82, 14158.91, 25973.78, -35740.46, -49163.64, -33399.52, -46465.12, -33430.43, -48174.09, 0.00, 0.00, 0.00
83, 14158.22, 25977.17, -35724.08, -49172.29, -33359.13, -46472.89, -33434.88, -48182.25, 0.00, 0.00, 0.00
84, 14083.12, 25936.83, -35804.68, -49275.52, -33365.21, -46580.32, -33540.47, -48292.29, 0.00, 0.00, 0.00
85, 14022.77, 25876.14, -35879.76, -49337.09, -33446.48, -46642.01, -33601.73, -48352.97, 0.00, 0.00, 0.00
86, 14135.22, 25949.17, -35766.12, -49194.91, -33429.60, -46497.46, -33458.59, -48206.96, 0.00, 0.00, 0.00
87, 14212.33, 26019.75, -35670.01, -49114.74, -33335.93, -46420.30, -33381.70, -48133.34, 0.07, 0.95, 0.22
88, 14112.65, 25951.56, -35766.46, -49240.36, -33353.09, -46552.96, -33508.95, -48266.67, 0.00, 0.00, 0.00
89, 14028.20, 25876.10, -35864.51, -49327.53, -33440.36, -46644.27, -33595.92, -48356.88, 0.00, 0.00, 0.00
90, 14086.99, 25900.33, -35811.34, -49241.18, -33464.88, -46554.30, -33508.06, -48264.95, 0.00, 0.00, 0.00
91, 14169.28, 25968.77, -35717.55, -49153.63, -33395.05, -46461.43, -33421.78, -48178.20, 0.00, 0.00, 0.00
92, 14114.99, 25949.23, -35762.59, -49233.27, -33373.30, -46545.54, -33506.18, -48268.77, 0.00, 0.00, 0.00
93, 14028.83, 25884.30, -35857.18, -49330.30, -33438.90, -46644.69, -33603.95, -48367.43, 0.00, 0.00, 0.00
94, 14037.03, 25861.06, -35857.76, -49298.16, -33499.99, -46608.95, -33567.63, -48328.52, 0.00, 0.00, 0.00
95, 14119.66, 25918.05, -35764.46, -49201.26, -33448.51, -46509.35, -33467.91, -48229.48, 0.00, 0.00, 0.00
96, 14111.75, 25935.98, -35763.55, -49230.81, -33387.85, -46541.32, -33498.20, -48265.55, 0.00, 0.00, 0.00
97, 13997.02, 25849.05, -35887.56, -49364.56, -33454.66, -46675.09, -33627.68, -48400.02, 0.08, 0.96, 0.22
98, 14012.44, 25840.76, -35884.74, -49332.80, -33509.67, -46636.96, -33586.49, -48357.28, 0.00, 0.00, 0.00
99, 14123.91, 25922.90, -35762.79, -49204.14, -33443.46, -46502.04, -33447.86, -48220.13, 0.00, 0.00, 0.00
100, 14107.73, 25925.36, -35767.68, -49241.65, -33391.49, -46541.29, -33479.89, -48257.37, 0.00, 0.00, 0.00
101, 14016.40, 25864.90, -35867.66, -49358.44, -33427.64, -46660.14, -33593.82, -48376.37, 0.00, 0.00, 0.00
102, 14013.94, 25844.70, -35881.12, -49348.18, -33491.00, -46644.29, -33585.42, -48365.24, 0.00, 0.00, 0.00
103, 14116.53, 25910.90, -35774.14, -49223.48, -33453.81, -46512.61, -33460.63, -48238.89, 0.00, 0.00, 0.00
104, 14128.36, 25933.43, -35753.22, -49225.51, -33388.10, -46518.09, -33462.68, -48244.45, 0.00, 0.00, 0.00
105, 14039.31, 25881.58, -35847.66, -49336.85, -33414.32, -46633.54, -33577.04, -48363.25, 0.00, 0.00, 0.00
106, 14020.35, 25858.42, -35880.18, -49344.89, -33465.68, -46639.42, -33584.57, -48371.90, 0.00, 0.00, 0.00
107, 14082.63, 25885.78, -35815.52, -49254.32, -33469.08, -46545.79, -33488.59, -48276.30, 0.08, 0.96, 0.23
108, 14122.26, 25928.20, -35759.21, -49219.37, -33400.08, -46510.60, -33450.97, -48241.70, 0.00, 0.00, 0.00
109, 14055.89, 25895.19, -35827.07, -49315.68, -33396.46, -46608.23, -33549.34, -48344.79, 0.00, 0.00, 0.00
110, 14009.47, 25850.37, -35888.05, -49366.96, -33460.54, -46659.62, -33598.45, -48392.44, 0.00, 0.00, 0.00
111, 14076.88, 25881.26, -35824.77, -49273.10, -33469.14, -46560.52, -33500.10, -48291.99, 0.00, 0.00, 0.00
112, 14139.44, 25936.36, -35748.89, -49208.30, -33400.25, -46495.65, -33432.11, -48228.69, 0.00, 0.00, 0.00
113, 14085.38, 25917.58, -35802.15, -49291.45, -33378.75, -46585.21, -33518.27, -48320.18, 0.00, 0.00, 0.00
114, 13999.21, 25845.08, -35906.04, -49386.58, -33457.92, -46682.82, -33613.09, -48417.90, 0.00, 0.00, 0.00
115, 14045.70, 25855.65, -35865.72, -49315.23, -33495.68, -46610.25, -33540.38, -48343.36, 0.00, 0.00, 0.00
116, 14137.14, 25929.95, -35760.15, -49215.10, -33423.75, -46509.15, -33439.93, -48244.23, 0.08, 0.96, 0.23
117, 14114.23, 25938.10, -35775.11, -49263.33, -33373.79, -46553.90, -33490.60, -48296.69, 0.00, 0.00, 0.00
118, 14023.06, 25865.71, -35873.57, -49369.50, -33435.59, -46659.13, -33595.88, -48404.31, 0.00, 0.00, 0.00
119, 14036.74, 25847.00, -35869.23, -49335.64, -33495.70, -46619.34, -33558.10, -48364.61, 0.00, 0.00, 0.00
120, 14132.34, 25917.21, -35769.29, -49229.38, -33438.75, -46509.29, -33451.98, -48258.33, 0.00, 0.00, 0.00
121, 14093.87, 25904.35, -35802.00, -49291.81, -33410.07, -46576.27, -33519.48, -48329.92, 0.00, 0.00, 0.00
122, 13994.45, 25834.37, -35908.16, -49409.91, -33469.16, -46697.53, -33639.08, -48449.10, 0.00, 0.00, 0.00
123, 14009.63, 25826.86, -35904.52, -49378.82, -33517.07, -46663.20, -33601.51, -48410.34, 0.00, 0.00, 0.00
124, 14126.26, 25909.92, -35780.02, -49242.84, -33447.69, -46525.69, -33459.98, -48272.30, 0.00, 0.00, 0.00
125, 14115.26, 25915.88, -35773.05, -49268.90, -33405.44, -46554.41, -33491.56, -48301.67, 0.00, 0.00, 0.00
126, 14022.57, 25853.10, -35873.45, -49383.43, -33452.60, -46672.14, -33610.18, -48423.76, 0.08, 0.96, 0.23
127, 13997.69, 25812.87, -35913.02, -49393.80, -33520.89, -46684.43, -33617.71, -48434.62, 0.00, 0.00, 0.00
128, 14072.95, 25854.91, -35832.77, -49290.11, -33503.39, -46579.38, -33511.19, -48329.45, 0.00, 0.00, 0.00
129, 14105.94, 25897.58, -35783.89, -49262.44, -33433.65, -46555.82, -33485.64, -48308.29, 0.00, 0.00, 0.00
130, 14024.89, 25851.96, -35865.88, -49363.13, -33445.56, -46662.21, -33593.57, -48417.12, 0.00, 0.00, 0.00
131, 13991.43, 25812.15, -35913.04, -49387.99, -33511.46, -46688.55, -33619.73, -48440.97, 0.00, 0.00, 0.00
132, 14072.72, 25855.80, -35828.71, -49278.06, -33502.29, -46576.81, -33505.18, -48327.24, 0.00, 0.00, 0.00
133, 14119.95, 25904.08, -35768.07, -49233.58, -33424.08, -46533.38, -33460.83, -48289.60, 0.00, 0.00, 0.00
134, 14014.30, 25834.46, -35869.72, -49366.42, -33449.36, -46668.34, -33597.93, -48432.32, 0.00, 0.00, 0.00
135, 13947.62, 25774.62, -35949.34, -49432.65, -33531.55, -46728.96, -33663.31, -48496.40, 0.00, 0.00, 0.00
136, 14001.56, 25793.49, -35902.24, -49354.26, -33556.36, -46642.16, -33577.15, -48408.24, 0.07, 0.96, 0.23
137, 14096.86, 25877.98, -35794.57, -49259.46, -33464.58, -46545.79, -33477.86, -48309.52, 0.00, 0.00, 0.00
138, 14045.17, 25859.98, -35843.64, -49342.95, -33431.79, -46631.93, -33560.99, -48396.29, 0.00, 0.00, 0.00
139, 13943.80, 25773.68, -35959.26, -49455.71, -33519.30, -46744.40, -33672.59, -48505.39, 0.00, 0.00, 0.00
140, 14005.60, 25801.69, -35906.96, -49370.35, -33545.59, -46654.53, -33585.98, -48413.74, 0.00, 0.00, 0.00
141, 14117.50, 25897.40, -35784.29, -49246.46, -33453.09, -46527.14, -33462.44, -48293.76, 0.00, 0.00, 0.00
142, 14067.05, 25876.88, -35824.73, -49320.66, -33420.21, -46607.07, -33538.68, -48377.82, 0.00, 0.00, 0.00
143, 13944.76, 25776.88, -35955.62, -49455.56, -33509.02, -46743.31, -33673.57, -48512.45, 0.00, 0.00, 0.00
144, 13970.49, 25776.46, -35935.79, -49403.75, -33554.59, -46688.08, -33617.61, -48453.91, 0.00, 0.00, 0.00
145, 14060.21, 25840.63, -35834.07, -49296.05, -33497.91, -46580.96, -33506.29, -48347.07, 0.00, 0.00, 0.00
146, 14033.97, 25837.34, -35851.57, -49342.21, -33456.65, -46631.79, -33553.79, -48403.71, 0.07, 0.96, 0.23
147, 13934.86, 25767.22, -35959.66, -49460.43, -33508.19, -46750.77, -33673.19, -48527.34, 0.00, 0.00, 0.00
148, 13947.91, 25758.91, -35958.19, -49433.14, -33566.69, -46720.73, -33646.80, -48495.19, 0.00, 0.00, 0.00
149, 14042.15, 25821.49, -35858.95, -49318.50, -33523.91, -46600.61, -33524.62, -48374.58, 0.00, 0.00, 0.00
150, 14048.38, 25842.93, -35841.02, -49327.35, -33459.55, -46610.72, -33535.59, -48388.08, 0.00, 0.00, 0.00
151, 13944.94, 25770.82, -35946.79, -49456.16, -33503.01, -46743.53, -33668.79, -48521.66, 0.00, 0.00, 0.00
152, 13917.94, 25731.04, -35985.37, -49472.41, -33578.18, -46759.98, -33685.29, -48535.11, 0.00, 0.00, 0.00
153, 14035.13, 25809.22, -35865.32, -49328.31, -33537.88, -46613.69, -33539.20, -48387.90, 0.00, 0.00, 0.00
154, 14050.04, 25828.31, -35836.15, -49320.87, -33476.95, -46608.62, -33534.66, -48387.17, 0.00, 0.00, 0.00
155, 13966.22, 25780.19, -35926.45, -49431.08, -33496.17, -46721.89, -33649.77, -48503.98, 0.00, 0.00, 0.00
156, 13923.50, 25734.57, -35983.11, -49471.61, -33562.57, -46760.43, -33686.69, -48542.45, 0.08, 0.96, 0.23
157, 14011.84, 25784.48, -35896.63, -49357.95, -33548.78, -46638.93, -33561.99, -48415.38, 0.00, 0.00, 0.00
158, 14084.48, 25853.46, -35810.04, -49291.92, -33463.29, -46568.02, -33491.83, -48344.74, 0.00, 0.00, 0.00
159, 13984.68, 25789.67, -35906.54, -49423.15, -33485.53, -46696.39, -33623.10, -48483.97, 0.00, 0.00, 0.00
160, 13906.20, 25717.09, -36001.13, -49510.16, -33576.03, -46781.26, -33708.55, -48569.69, 0.00, 0.00, 0.00
161, 13961.84, 25737.12, -35948.36, -49428.58, -33596.37, -46692.48, -33622.48, -48478.18, 0.00, 0.00, 0.00
162, 14063.40, 25827.24, -35833.96, -49322.32, -33505.46, -46584.48, -33515.57, -48370.98, 0.00, 0.00, 0.00
163, 13994.70, 25793.11, -35895.92, -49416.71, -33489.73, -46682.96, -33614.14, -48474.25, 0.00, 0.00, 0.00
164, 13897.67, 25706.83, -36016.80, -49536.56, -33586.22, -46806.38, -33735.78, -48599.15, 0.00, 0.00, 0.00
165, 13987.99, 25758.26, -35952.24, -49439.78, -33600.13, -46709.04, -33632.42, -48496.94, 0.00, 0.00, 0.00
166, 14049.77, 25812.93, -35861.92, -49343.24, -33537.52, -46613.76, -33536.22, -48400.78, 0.07, 0.96, 0.22
167, 13982.89, 25783.21, -35899.74, -49404.11, -33507.72, -46679.70, -33603.54, -48471.43, 0.00, 0.00, 0.00
168, 13900.88, 25725.29, -35999.11, -49506.27, -33568.27, -46784.84, -33709.49, -48580.22, 0.00, 0.00, 0.00
169, 13935.44, 25733.38, -35988.63, -49461.30, -33617.11, -46735.68, -33661.03, -48527.98, 0.00, 0.00, 0.00
170, 14058.62, 25830.93, -35862.79, -49326.41, -33544.58, -46598.63, -33522.07, -48390.00, 0.00, 0.00, 0.00
171, 14068.54, 25862.38, -35842.12, -49339.55, -33479.22, -46615.66, -33537.25, -48411.02, 0.00, 0.00, 0.00
172, 13973.33, 25797.11, -35938.92, -49453.57, -33515.72, -46732.73, -33651.76, -48532.21, 0.00, 0.00, 0.00
173, 13954.17, 25757.57, -35974.17, -49456.32, -33587.21, -46733.52, -33649.39, -48531.22, 0.00, 0.00, 0.00
174, 14051.27, 25818.10, -35868.20, -49334.72, -33548.71, -46612.64, -33527.86, -48408.33, 0.00, 0.00, 0.00
175, 14063.36, 25842.66, -35844.53, -49337.25, -33491.23, -46620.39, -33535.46, -48421.72, 0.00, 0.00, 0.00
176, 13986.11, 25797.78, -35931.72, -49442.44, -33512.53, -46728.15, -33645.92, -48538.58, 0.07, 0.96, 0.22
177, 13931.82, 25734.52, -35999.20, -49488.35, -33601.84, -46771.54, -33690.79, -48583.28, 0.00, 0.00, 0.00
178, 14016.55, 25782.80, -35911.74, -49377.55, -33591.74, -46655.15, -33581.44, -48468.01, 0.00, 0.00, 0.00
179, 14072.14, 25844.07, -35845.43, -49331.84, -33514.65, -46613.42, -33540.07, -48430.33, 0.00, 0.00, 0.00
180, 13998.29, 25804.57, -35923.32, -49436.71, -33519.50, -46723.70, -33648.02, -48543.83, 0.00, 0.00, 0.00
181, 13947.71, 25753.66, -35991.25, -49486.05, -33593.24, -46770.73, -33695.72, -48590.39, 0.00, 0.00, 0.00
182, 14042.15, 25809.49, -35899.74, -49362.86, -33572.97, -46641.76, -33566.78, -48457.95, 0.00, 0.00, 0.00
183, 14094.76, 25857.59, -35833.45, -49309.60, -33496.41, -46588.93, -33511.23, -48405.76, 0.00, 0.00, 0.00
184, 14028.94, 25828.02, -35893.68, -49402.88, -33484.05, -46684.50, -33605.87, -48503.75, 0.00, 0.00, 0.00
185, 13948.70, 25757.57, -35983.80, -49490.16, -33568.96, -46773.39, -33693.18, -48592.45, 0.00, 0.00, 0.00
186, 14007.61, 25778.29, -35928.35, -49405.89, -33596.59, -46684.34, -33605.40, -48502.14, 0.07, 0.96, 0.23
187, 14115.22, 25871.38, -35803.67, -49293.35, -33498.78, -46572.07, -33491.72, -48390.88, 0.00, 0.00, 0.00
188, 14070.60, 25859.16, -35841.65, -49367.11, -33465.93, -46654.14, -33570.71, -48475.34, 0.00, 0.00, 0.00
189, 13964.83, 25770.42, -35960.56, -49485.55, -33549.61, -46772.43, -33694.07, -48596.18, 0.00, 0.00, 0.00
190, 14003.32, 25776.57, -35935.59, -49422.86, -33590.09, -46705.22, -33630.55, -48528.25, 0.00, 0.00, 0.00
191, 14092.30, 25844.92, -35836.37, -49319.88, -33527.66, -46603.99, -33525.63, -48425.93, 0.00, 0.00, 0.00
192, 14057.08, 25835.08, -35861.61, -49375.47, -33494.07, -46666.26, -33584.32, -48491.32, 0.00, 0.00, 0.00
193, 13956.61, 25758.51, -35965.79, -49489.53, -33556.41, -46786.22, -33704.21, -48614.95, 0.00, 0.00, 0.00
194, 13966.91, 25743.31, -35960.96, -49454.69, -33608.62, -46750.21, -33671.45, -48581.31, 0.00, 0.00, 0.00
195, 14051.49, 25797.22, -35863.42, -49349.41, -33564.14, -46644.87, -33567.58, -48476.39, 0.07, 0.96, 0.23
196, 14057.93, 25823.15, -35845.11, -49360.79, -33494.22, -46661.14, -33582.31, -48493.98, 0.00, 0.00, 0.00
197, 13957.23, 25755.22, -35953.72, -49483.88, -33547.11, -46786.25, -33709.02, -48622.02, 0.00, 0.00, 0.00
198, 13948.00, 25729.18, -35976.38, -49479.86, -33613.69, -46780.21, -33697.87, -48609.97, 0.00, 0.00, 0.00
199, 14015.97, 25763.22, -35905.86, -49389.84, -33599.54, -46686.94, -33603.14, -48510.86, 0.00, 0.00, 0.00
200, 14048.67, 25807.90, -35863.44, -49371.70, -33528.66, -46670.69, -33590.09, -48499.68, 0.00, 0.00, 0.00
201, 13964.12, 25758.69, -35952.24, -49480.14, -33548.78, -46784.08, -33707.57, -48620.59, 0.00, 0.00, 0.00
202, 13901.56, 25690.60, -36028.86, -49529.86, -33647.38, -46826.70, -33761.97, -48672.96, 0.00, 0.00, 0.00
203, 13996.19, 25748.18, -35931.90, -49403.61, -33624.89, -46695.79, -33636.00, -48544.95, 0.00, 0.00, 0.00
204, 14032.27, 25785.89, -35884.03, -49371.89, -33558.93, -46669.37, -33606.47, -48517.37, 0.00, 0.00, 0.00
205, 13972.01, 25759.33, -35944.80, -49458.15, -33548.58, -46761.43, -33694.96, -48608.83, 0.08, 0.96, 0.23
206, 13893.58, 25680.83, -36039.95, -49537.88, -33636.76, -46838.75, -33770.04, -48683.59, 0.00, 0.00, 0.00
207, 13982.36, 25729.27, -35958.84, -49425.36, -33631.91, -46720.64, -33648.25, -48560.93, 0.00, 0.00, 0.00
208, 14075.27, 25816.60, -35846.43, -49331.62, -33533.52, -46624.89, -33552.79, -48466.49, 0.00, 0.00, 0.00
209, 13996.35, 25776.50, -35917.22, -49436.38, -33527.86, -46731.21, -33658.53, -48575.41, 0.00, 0.00, 0.00
210, 13936.94, 25730.21, -35990.11, -49504.20, -33587.74, -46798.83, -33723.48, -48643.09, 0.00, 0.00, 0.00
211, 13984.95, 25744.40, -35948.55, -49430.43, -33615.35, -46719.32, -33644.80, -48563.79, 0.00, 0.00, 0.00
212, 14052.29, 25795.43, -35868.27, -49355.91, -33557.39, -46639.17, -33567.00, -48487.21, 0.00, 0.00, 0.00
213, 13987.01, 25760.88, -35925.60, -49446.86, -33549.99, -46733.94, -33661.50, -48586.93, 0.00, 0.00, 0.00
214, 13881.15, 25675.20, -36042.28, -49561.46, -33631.06, -46850.42, -33776.70, -48707.18, 0.00, 0.00, 0.00
215, 13940.63, 25703.92, -35991.00, -49473.64, -33645.07, -46758.86, -33688.70, -48616.20, 0.07, 0.96, 0.23
216, 14042.37, 25781.46, -35878.35, -49355.54, -33567.83, -46638.57, -33569.23, -48495.84, 0.00, 0.00, 0.00
217, 14022.25, 25787.79, -35888.23, -49397.33, -33516.02, -46683.38, -33611.70, -48541.24, 0.00, 0.00, 0.00
218, 13912.71, 25704.33, -36005.15, -49528.27, -33578.15, -46817.80, -33743.13, -48677.65, 0.00, 0.00, 0.00
219, 13905.65, 25673.84, -36024.46, -49518.86, -33648.47, -46806.38, -33729.68, -48661.82, 0.00, 0.00, 0.00
220, 14014.95, 25751.55, -35910.51, -49392.50, -33589.48, -46675.00, -33596.08, -48526.66, 0.00, 0.00, 0.00
221, 14022.90, 25774.49, -35894.64, -49410.36, -33532.27, -46694.51, -33619.01, -48553.24, 0.00, 0.00, 0.00
222, 13932.65, 25712.24, -36002.82, -49537.07, -33580.10, -46826.88, -33751.00, -48687.89, 0.00, 0.00, 0.00
223, 13890.07, 25659.42, -36056.74, -49555.74, -33665.61, -46846.95, -33773.82, -48708.52, 0.00, 0.00, 0.00
224, 13978.47, 25719.79, -35943.57, -49415.77, -33625.52, -46707.90, -33636.82, -48569.36, 0.00, 0.00, 0.00
225, 13998.54, 25751.06, -35912.86, -49409.25, -33566.22, -46708.15, -33639.31, -48573.82, 0.07, 0.96, 0.23
226, 13923.79, 25710.38, -36005.39, -49522.30, -33593.11, -46828.49, -33762.33, -48699.11, 0.00, 0.00, 0.00
227, 13907.19, 25687.61, -36048.69, -49541.72, -33660.39, -46846.82, -33784.82, -48717.75, 0.00, 0.00, 0.00
228, 14014.05, 25755.22, -35942.92, -49411.84, -33629.52, -46709.63, -33652.07, -48580.75, 0.00, 0.00, 0.00
229, 14068.48, 25806.76, -35876.23, -49366.55, -33550.53, -46664.36, -33605.20, -48537.04, 0.00, 0.00, 0.00
230, 13986.40, 25758.33, -35956.45, -49478.85, -33549.72, -46777.33, -33717.14, -48652.50, 0.00, 0.00, 0.00
231, 13917.04, 25691.65, -36041.45, -49550.60, -33634.21, -46848.63, -33788.73, -48723.40, 0.00, 0.00, 0.00
232, 13987.23, 25726.81, -35971.87, -49452.29, -33635.93, -46745.39, -33687.18, -48620.25, 0.00, 0.00, 0.00
233, 14053.68, 25785.35, -35890.17, -49383.23, -33559.87, -46675.11, -33616.78, -48551.63, 0.00, 0.00, 0.00
234, 13979.90, 25745.39, -35952.82, -49482.78, -33550.88, -46778.22, -33716.13, -48655.66, 0.00, 0.00, 0.00
235, 13894.49, 25671.85, -36047.08, -49573.62, -33641.54, -46873.98, -33813.09, -48750.88, 0.07, 0.96, 0.23
236, 13972.97, 25717.63, -35973.66, -49468.23, -33647.29, -46768.72, -33709.27, -48644.61, 0.00, 0.00, 0.00
237, 14062.58, 25790.54, -35869.68, -49370.44, -33573.26, -46670.53, -33613.78, -48549.24, 0.00, 0.00, 0.00
238, 14013.22, 25767.87, -35910.51, -49444.34, -33550.75, -46742.93, -33695.77, -48633.46, 0.00, 0.00, 0.00
239, 13913.92, 25689.28, -36021.04, -49557.48, -33625.76, -46856.30, -33812.55, -48749.09, 0.00, 0.00, 0.00
240, 13939.80, 25686.38, -36004.86, -49509.47, -33672.50, -46804.30, -33760.05, -48692.02, 0.00, 0.00, 0.00
241, 14030.99, 25750.08, -35905.71, -49404.42, -33614.56, -46700.48, -33652.81, -48585.56, 0.00, 0.00, 0.00
242, 14012.71, 25755.31, -35914.67, -49442.13, -33567.76, -46744.52, -33694.79, -48629.93, 0.00, 0.00, 0.00
243, 13931.37, 25701.40, -36003.34, -49540.70, -33606.99, -46846.48, -33797.42, -48735.05, 0.00, 0.00, 0.00
244, 13928.91, 25677.08, -36016.23, -49526.12, -33671.49, -46826.34, -33787.99, -48720.57, 0.00, 0.00, 0.00
245, 14014.86, 25734.08, -35924.97, -49416.15, -33643.11, -46714.92, -33677.46, -48610.15, 0.07, 0.96, 0.23
246, 14008.82, 25746.66, -35917.35, -49436.94, -33594.38, -46741.27, -33701.20, -48636.59, 0.00, 0.00, 0.00
247, 13908.82, 25679.05, -36024.17, -49563.34, -33638.73, -46872.07, -33832.98, -48771.37, 0.00, 0.00, 0.00
248, 13890.16, 25648.96, -36059.20, -49573.44, -33709.60, -46880.75, -33843.22, -48778.39, 0.00, 0.00, 0.00
249, 14002.09, 25722.74, -35947.30, -49440.87, -33669.86, -46744.02, -33708.20, -48639.65, 0.00, 0.00, 0.00
250, 14061.64, 25788.41, -35874.37, -49396.06, -33576.84, -46702.76, -33666.51, -48599.69, 0.00, 0.00, 0.00
251, 13952.23, 25716.31, -35982.64, -49535.35, -33608.35, -46844.76, -33804.22, -48742.94, 0.00, 0.00, 0.00
252, 13880.41, 25642.23, -36069.46, -49603.23, -33705.54, -46909.54, -33867.27, -48805.84, 0.00, 0.00, 0.00
253, 13972.32, 25698.20, -35980.36, -49482.49, -33688.93, -46783.54, -33737.01, -48675.71, 0.00, 0.00, 0.00
254, 14051.11, 25776.97, -35886.64, -49403.75, -33584.32, -46706.81, -33656.16, -48598.10, 0.00, 0.00, 0.00
255, 13966.40, 25727.30, -35966.32, -49515.35, -33590.13, -46824.27, -33778.34, -48720.48, 0.07, 0.96, 0.24
0, 13890.51, 25656.96, -36057.52, -49590.09, -33682.36, -46902.83, -33858.46, -48798.08, 0.00, 0.00, 0.00
1, 13940.65, 25669.32, -36012.39, -49509.05, -33705.45, -46818.83, -33776.37, -48712.99, 0.00, 0.00, 0.00
2, 14006.45, 25722.86, -35936.30, -49436.11, -33643.20, -46744.22, -33704.60, -48641.64, 0.00, 0.00, 0.00
3, 13942.53, 25690.49, -35993.59, -49528.25, -33625.94, -46838.75, -33800.06, -48739.95, 0.00, 0.00, 0.00
4, 13872.99, 25633.99, -36079.09, -49612.76, -33690.94, -46919.93, -33884.06, -48825.13, 0.00, 0.00, 0.00
5, 13901.02, 25630.28, -36055.15, -49560.90, -33736.70, -46862.60, -33829.25, -48767.59, 0.00, 0.00, 0.00
6, 13998.41, 25708.44, -35948.20, -49452.63, -33664.39, -46754.39, -33719.66, -48655.70, 0.00, 0.00, 0.00
7, 13984.77, 25723.46, -35952.02, -49492.37, -33603.43, -46798.11, -33761.10, -48700.36, 0.00, 0.00, 0.00
8, 13886.16, 25650.10, -36058.84, -49605.16, -33670.06, -46909.36, -33871.63, -48814.24, 0.00, 0.00, 0.00
9, 13901.17, 25637.58, -36051.64, -49566.36, -33717.74, -46862.46, -33828.85, -48771.48, 0.08, 0.96, 0.23
10, 13989.71, 25698.27, -35955.15, -49459.52, -33665.77, -46750.84, -33718.48, -48661.29, 0.00, 0.00, 0.00
11, 13993.85, 25725.31, -35940.17, -49473.48, -33590.56, -46769.55, -33732.18, -48679.04, 0.00, 0.00, 0.00
12, 13901.44, 25662.24, -36040.87, -49586.32, -33630.03, -46886.22, -33849.37, -48795.53, 0.00, 0.00, 0.00
13, 13914.47, 25655.64, -36040.04, -49556.79, -33689.24, -46853.25, -33819.64, -48761.02, 0.00, 0.00, 0.00
14, 14026.64, 25734.97, -35922.34, -49422.70, -33636.67, -46718.72, -33684.70, -48625.28, 0.00, 0.00, 0.00
15, 14003.79, 25727.88, -35933.13, -49461.91, -33598.49, -46763.20, -33728.34, -48672.53, 0.00, 0.00, 0.00
16, 13893.08, 25650.55, -36047.06, -49596.60, -33651.60, -46901.25, -33863.63, -48810.80, 0.00, 0.00, 0.00
17, 13876.10, 25621.27, -36080.54, -49608.15, -33717.65, -46910.75, -33870.98, -48817.64, 0.00, 0.00, 0.00
18, 13971.32, 25677.82, -35985.21, -49494.79, -33689.38, -46792.64, -33754.53, -48700.52, 0.00, 0.00, 0.00
19, 14001.80, 25713.76, -35941.98, -49472.84, -33625.85, -46771.83, -33735.87, -48685.81, 0.08, 0.95, 0.23
20, 13914.61, 25661.08, -36029.22, -49585.15, -33640.58, -46885.66, -33854.51, -48807.25, 0.00, 0.00, 0.00
21, 13851.87, 25596.14, -36103.81, -49642.22, -33727.20, -46943.49, -33911.66, -48863.86, 0.00, 0.00, 0.00
22, 13927.13, 25635.19, -36028.38, -49537.59, -33722.50, -46837.16, -33800.55, -48753.22, 0.00, 0.00, 0.00
23, 13994.74, 25700.01, -35946.88, -49470.22, -33636.00, -46769.70, -33730.23, -48684.11, 0.00, 0.00, 0.00
24, 13926.68, 25669.08, -36011.05, -49565.82, -33621.54, -46867.38, -33827.44, -48783.66, 0.00, 0.00, 0.00
25, 13868.43, 25616.89, -36090.76, -49633.81, -33686.25, -46935.46, -33890.18, -48850.21, 0.00, 0.00, 0.00
26, 13937.50, 25651.08, -36020.75, -49535.78, -33694.45, -46832.74, -33790.34, -48744.48, 0.00, 0.00, 0.00
27, 14008.98, 25709.20, -35931.50, -49458.42, -33630.34, -46754.59, -33715.50, -48668.15, 0.00, 0.00, 0.00
28, 13967.60, 25697.89, -35966.01, -49531.26, -33598.87, -46829.90, -33790.92, -48750.54, 0.08, 0.96, 0.23
29, 13857.39, 25606.07, -36082.98, -49648.88, -33687.79, -46946.13, -33911.60, -48872.63, 0.00, 0.00, 0.00
30, 13891.59, 25608.37, -36056.71, -49586.61, -33730.97, -46879.74, -33849.01, -48806.95, 0.00, 0.00, 0.00
31, 14004.78, 25699.57, -35935.21, -49460.54, -33650.57, -46754.10, -33725.45, -48680.09, 0.00, 0.00, 0.00
32, 13980.21, 25701.35, -35951.44, -49505.51, -33600.55, -46803.37, -33775.18, -48735.54, 0.00, 0.00, 0.00
33, 13895.39, 25637.92, -36047.75, -49604.35, -33651.15, -46905.34, -33875.61, -48837.96, 0.00, 0.00, 0.00
34, 13892.70, 25609.64, -36061.39, -49585.38, -33715.73, -46883.18, -33852.74, -48812.27, 0.00, 0.00, 0.00
35, 13966.73, 25655.91, -35982.30, -49494.58, -33686.11, -46791.25, -33762.91, -48720.30, 0.00, 0.00, 0.00
36, 13949.25, 25659.47, -35991.71, -49532.71, -33643.04, -46835.04, -33806.83, -48767.21, 0.00, 0.00, 0.00
37, 13862.98, 25604.46, -36084.30, -49637.68, -33680.39, -46942.59, -33921.05, -48880.85, 0.00, 0.00, 0.00
38, 13859.89, 25584.16, -36098.00, -49621.25, -33740.38, -46922.14, -33905.83, -48862.70, 0.07, 0.96, 0.23
39, 13991.14, 25680.61, -35962.64, -49469.93, -33670.87, -46768.16, -33751.31, -48706.06, 0.00, 0.00, 0.00
40, 14005.83, 25708.10, -35933.42, -49472.81, -33600.41, -46772.79, -33753.66, -48710.60, 0.00, 0.00, 0.00
41, 13889.24, 25627.82, -36053.68, -49615.91, -33656.05, -46917.74, -33901.16, -48861.45, 0.00, 0.00, 0.00
42, 13860.63, 25591.34, -36095.85, -49635.15, -33725.74, -46934.46, -33920.87, -48879.82, 0.00, 0.00, 0.00
43, 13952.38, 25646.23, -36002.11, -49515.86, -33700.89, -46814.18, -33796.71, -48755.39, 0.00, 0.00, 0.00
44, 13982.94, 25678.94, -35956.58, -49493.29, -33635.11, -46792.19, -33772.05, -48735.92, 0.00, 0.00, 0.00
45, 13898.16, 25627.84, -36040.62, -49609.85, -33646.13, -46909.29, -33888.53, -48859.32, 0.00, 0.00, 0.00
46, 13832.35, 25563.13, -36120.69, -49676.35, -33730.28, -46969.29, -33950.27, -48918.27, 0.00, 0.00, 0.00
47, 13930.99, 25624.58, -36025.07, -49553.17, -33710.48, -46835.66, -33816.49, -48781.52, 0.00, 0.00, 0.00
48, 14010.70, 25700.55, -35933.31, -49474.22, -33617.89, -46755.33, -33733.61, -48704.38, 0.07, 0.96, 0.23
49, 13952.05, 25677.26, -35990.60, -49560.77, -33603.95, -46840.70, -33821.92, -48799.63, 0.00, 0.00, 0.00
50, 13874.64, 25612.06, -36078.35, -49641.68, -33677.35, -46915.89, -33901.83, -48880.09, 0.00, 0.00, 0.00
51, 13918.01, 25621.49, -36042.28, -49573.15, -33712.57, -46844.14, -33825.27, -48802.73, 0.00, 0.00, 0.00
52, 14004.84, 25692.10, -35944.53, -49481.78, -33637.68, -46754.91, -33731.04, -48710.75, 0.00, 0.00, 0.00
53, 13957.84, 25674.53, -35985.66, -49557.32, -33610.47, -46836.76, -33811.97, -48799.02, 0.00, 0.00, 0.00
54, 13878.09, 25612.17, -36076.27, -49649.30, -33672.61, -46928.20, -33902.43, -48896.00, 0.00, 0.00, 0.00
55, 13927.39, 25630.65, -36037.70, -49575.81, -33698.56, -46851.22, -33823.84, -48817.68, 0.00, 0.00, 0.00
56, 14033.01, 25714.90, -35922.14, -49457.34, -33626.45, -46728.91, -33704.24, -48690.12, 0.00, 0.00, 0.00
57, 14000.98, 25709.22, -35950.93, -49515.28, -33582.82, -46786.38, -33760.05, -48749.80, 0.00, 0.00, 0.00
58, 13881.57, 25617.27, -36084.27, -49654.67, -33659.40, -46925.16, -33895.28, -48889.79, 0.07, 0.96, 0.23
59, 13892.82, 25605.73, -36091.79, -49627.84, -33721.88, -46892.64, -33865.15, -48858.48, 0.00, 0.00, 0.00
60, 14000.26, 25684.93, -35981.52, -49508.38, -33671.00, -46772.50, -33742.06, -48736.61, 0.00, 0.00, 0.00
61, 14004.42, 25707.48, -35960.00, -49524.51, -33602.83, -46791.21, -33756.41, -48757.25, 0.00, 0.00, 0.00
62, 13892.15, 25626.10, -36071.42, -49654.15, -33656.38, -46919.37, -33890.09, -48893.75, 0.00, 0.00, 0.00
63, 13888.41, 25607.52, -36084.70, -49640.29, -33717.85, -46906.41, -33877.20, -48877.86, 0.00, 0.00, 0.00
64, 14011.82, 25697.78, -35957.79, -49492.77, -33663.22, -46758.20, -33726.52, -48721.30, 0.00, 0.00, 0.00
65, 14018.81, 25717.16, -35936.30, -49501.69, -33600.39, -46769.17, -33730.48, -48729.86, 0.00, 0.00, 0.00
66, 13909.83, 25644.11, -36048.16, -49639.51, -33642.19, -46908.13, -33865.84, -48870.57, 0.00, 0.00, 0.00
67, 13878.40, 25606.11, -36094.69, -49666.82, -33708.22, -46927.39, -33888.06, -48891.06, 0.00, 0.00, 0.00
68, 13957.28, 25649.14, -36016.04, -49564.90, -33696.28, -46817.40, -33779.39, -48780.65, 0.07, 0.96, 0.23
69, 14003.48, 25698.76, -35953.61, -49522.52, -33623.28, -46773.66, -33735.96, -48739.95, 0.00, 0.00, 0.00
70, 13917.87, 25648.04, -36034.45, -49633.41, -33635.39, -46887.43, -33853.77, -48859.04, 0.00, 0.00, 0.00
0, 13720.01, 25407.45, 0.00, -49805.36, -33918.08, -47049.32, -34019.80, -49023.05, 0.00, 0.00, 0.00
1, 13675.45, 25395.02, 0.00, -49873.82, -33886.74, -47118.32, -34089.25, -49097.93, 0.08, 0.96, 0.23
2, 13581.61, 25320.86, 0.00, -49980.33, -33954.04, -47224.47, -34194.17, -49204.70, 0.00, 0.00, 0.00
3, 13641.81, 25350.56, 0.00, -49895.57, -33974.74, -47136.23, -34106.17, -49112.66, 0.00, 0.00, 0.00
4, 13745.41, 25430.27, 0.00, -49775.03, -33894.36, -47015.48, -33985.87, -48994.66, 0.00, 0.00, 0.00
5, 13701.51, 25409.73, 0.00, -49840.68, -33865.53, -47090.41, -34057.82, -49069.43, 0.00, 0.00, 0.00
6, 13605.64, 25338.92, 0.00, -49954.34, -33932.09, -47208.61, -34181.72, -49187.65, 0.00, 0.00, 0.00
7, 13626.20, 25337.04, 0.00, -49914.57, -33983.64, -47162.71, -34142.42, -49142.77, 0.00, 0.00, 0.00
8, 13734.48, 25413.84, 0.00, -49791.57, -33921.03, -47037.48, -34011.93, -49013.84, 0.00, 0.00, 0.00
9, 13748.09, 25443.64, 0.00, -49798.07, -33848.74, -47045.26, -34013.36, -49019.88, 0.00, 0.00, 0.00
10, 13643.75, 25371.58, 0.00, -49926.82, -33890.16, -47173.04, -34138.82, -49146.88, 0.00, 0.00, 0.00
11, 13626.81, 25341.09, 0.00, -49932.61, -33959.99, -47170.72, -34139.36, -49144.91, 0.08, 0.96, 0.23
12, 13752.04, 25429.89, 0.00, -49785.29, -33899.79, -47015.37, -33986.65, -48991.25, 0.00, 0.00, 0.00
13, 13784.45, 25473.41, 0.00, -49765.62, -33823.15, -46998.00, -33969.33, -48975.51, 0.00, 0.00, 0.00
14, 13682.75, 25407.14, 0.00, -49891.84, -33849.57, -47126.13, -34098.61, -49105.48, 0.00, 0.00, 0.00
15, 13619.74, 25340.51, 0.00, -49945.02, -33941.37, -47175.23, -34153.02, -49154.17, 0.00, 0.00, 0.00
16, 13710.43, 25394.40, 0.00, -49826.53, -33930.37, -47053.15, -34033.77, -49031.81, 0.00, 0.00, 0.00
17, 13804.21, 25485.70, 0.00, -49739.71, -33816.78, -46966.20, -33948.19, -48947.39, 0.00, 0.00, 0.00
18, 13713.96, 25427.03, 0.00, -49860.30, -33823.53, -47093.49, -34072.42, -49075.29, 0.00, 0.00, 0.00
19, 13637.87, 25352.76, 0.00, -49937.77, -33913.38, -47168.44, -34144.39, -49146.66, 0.00, 0.00, 0.00
20, 13719.81, 25398.13, 0.00, -49829.14, -33917.47, -47053.75, -34033.93, -49031.70, 0.00, 0.00, 0.00
21, 13797.55, 25467.49, 0.00, -49749.37, -33840.79, -46978.83, -33961.02, -48959.73, 0.07, 0.96, 0.23
22, 13713.49, 25416.79, 0.00, -49860.19, -33837.86, -47096.49, -34079.08, -49082.33, 0.00, 0.00, 0.00
23, 13633.96, 25350.86, 0.00, -49948.10, -33916.51, -47184.78, -34169.09, -49171.00, 0.00, 0.00, 0.00
24, 13682.69, 25368.76, 0.00, -49874.12, -33948.52, -47107.69, -34092.46, -49088.54, 0.00, 0.00, 0.00
25, 13774.17, 25444.40, 0.00, -49773.31, -33874.54, -47004.98, -33993.74, -48989.43, 0.00, 0.00, 0.00
26, 13722.61, 25424.24, 0.00, -49848.77, -33849.44, -47079.19, -34072.93, -49073.70, 0.00, 0.00, 0.00
27, 13631.30, 25356.73, 0.00, -49947.50, -33916.56, -47175.52, -34175.30, -49176.77, 0.00, 0.00, 0.00
28, 13678.31, 25376.54, 0.00, -49872.84, -33945.01, -47103.82, -34102.68, -49098.53, 0.00, 0.00, 0.00
29, 13762.77, 25436.22, 0.00, -49771.21, -33889.16, -47008.29, -34003.02, -48995.87, 0.00, 0.00, 0.00
30, 13752.83, 25450.19, 0.00, -49798.54, -33837.23, -47044.09, -34038.06, -49035.43, 0.00, 0.00, 0.00
31, 13670.39, 25393.88, 0.00, -49902.30, -33877.09, -47150.02, -34148.75, -49147.62, 0.08, 0.96, 0.23
32, 13648.96, 25349.67, 0.00, -49911.46, -33959.05, -47148.46, -34153.57, -49149.45, 0.00, 0.00, 0.00
33, 13763.29, 25432.89, 0.00, -49777.80, -33905.54, -47005.85, -34013.30, -49006.58, 0.00, 0.00, 0.00
34, 13781.03, 25467.26, 0.00, -49778.12, -33828.34, -47007.33, -34010.35, -49007.67, 0.00, 0.00, 0.00
35, 13687.74, 25404.05, 0.00, -49899.69, -33860.37, -47130.57, -34133.62, -49132.26, 0.00, 0.00, 0.00
36, 13660.71, 25362.66, 0.00, -49915.73, -33934.86, -47143.49, -34148.66, -49142.97, 0.00, 0.00, 0.00
37, 13752.04, 25416.55, 0.00, -49800.51, -33918.48, -47027.53, -34037.93, -49024.77, 0.00, 0.00, 0.00
38, 13781.71, 25452.71, 0.00, -49781.94, -33851.20, -47013.38, -34024.59, -49011.81, 0.00, 0.00, 0.00
39, 13691.61, 25399.13, 0.00, -49896.33, -33876.84, -47134.60, -34144.77, -49135.61, 0.00, 0.00, 0.00
40, 13655.42, 25359.82, 0.00, -49926.04, -33942.38, -47163.21, -34176.38, -49164.09, 0.08, 0.96, 0.23
41, 13739.97, 25407.25, 0.00, -49814.68, -33929.16, -47046.60, -34063.77, -49045.40, 0.00, 0.00, 0.00
42, 13794.76, 25460.40, 0.00, -49763.09, -33856.52, -46992.86, -34015.87, -48999.31, 0.00, 0.00, 0.00
43, 13724.60, 25423.61, 0.00, -49862.58, -33854.02, -47096.22, -34121.75, -49106.82, 0.00, 0.00, 0.00
44, 13666.33, 25374.62, 0.00, -49918.39, -33918.04, -47153.84, -34178.48, -49162.88, 0.00, 0.00, 0.00
45, 13704.86, 25379.71, 0.00, -49852.68, -33945.53, -47084.08, -34104.13, -49086.75, 0.00, 0.00, 0.00
46, 13770.42, 25435.37, 0.00, -49784.08, -33881.09, -47014.14, -34036.39, -49019.48, 0.00, 0.00, 0.00
47, 13720.51, 25419.72, 0.00, -49856.59, -33854.09, -47090.09, -34117.86, -49103.85, 0.00, 0.00, 0.00
48, 13654.97, 25367.75, 0.00, -49927.54, -33910.70, -47162.71, -34193.72, -49177.52, 0.00, 0.00, 0.00
49, 13702.87, 25382.08, 0.00, -49851.70, -33937.03, -47085.45, -34117.99, -49097.84, 0.00, 0.00, 0.00
50, 13791.61, 25453.50, 0.00, -49749.28, -33866.71, -46982.96, -34016.71, -48996.00, 0.08, 0.96, 0.23
51, 13751.69, 25445.13, 0.00, -49807.73, -33830.19, -47044.56, -34082.21, -49064.40, 0.00, 0.00, 0.00
52, 13645.31, 25360.56, 0.00, -49929.44, -33899.19, -47168.80, -34204.02, -49190.46, 0.00, 0.00, 0.00
53, 13668.94, 25355.35, 0.00, -49886.36, -33954.00, -47122.17, -34161.55, -49143.46, 0.00, 0.00, 0.00
54, 13789.44, 25449.03, 0.00, -49747.96, -33881.11, -46981.87, -34026.95, -49004.16, 0.00, 0.00, 0.00
55, 13777.08, 25459.35, 0.00, -49781.09, -33824.94, -47020.00, -34064.86, -49044.62, 0.00, 0.00, 0.00
56, 13653.14, 25363.17, 0.00, -49928.03, -33895.95, -47167.07, -34214.71, -49195.61, 0.00, 0.00, 0.00
57, 13653.99, 25344.40, 0.00, -49910.30, -33958.09, -47145.59, -34192.51, -49170.75, 0.00, 0.00, 0.00
58, 13779.36, 25435.19, 0.00, -49768.21, -33888.26, -47000.17, -34047.96, -49022.38, 0.00, 0.00, 0.00
59, 13779.78, 25449.61, 0.00, -49785.96, -33833.63, -47018.43, -34069.11, -49043.35, 0.00, 0.00, 0.00
60, 13663.42, 25369.36, 0.00, -49928.34, -33887.16, -47162.16, -34214.77, -49189.17, 0.07, 0.96, 0.23
61, 13663.49, 25357.67, 0.00, -49922.48, -33942.13, -47150.15, -34204.89, -49172.76, 0.00, 0.00, 0.00
62, 13775.67, 25432.08, 0.00, -49787.84, -33892.44, -47008.73, -34065.98, -49030.32, 0.00, 0.00, 0.00
63, 13780.03, 25442.63, 0.00, -49791.28, -33844.72, -47012.09, -34068.48, -49032.68, 0.00, 0.00, 0.00
64, 13701.10, 25399.00, 0.00, -49894.39, -33857.77, -47120.70, -34175.17, -49142.63, 0.00, 0.00, 0.00
65, 13634.94, 25331.86, 0.00, -49956.30, -33942.96, -47183.68, -34237.77, -49204.30, 0.00, 0.00, 0.00
66, 13704.48, 25362.34, 0.00, -49856.66, -33946.33, -47084.24, -34137.35, -49101.71, 0.00, 0.00, 0.00
67, 13781.44, 25433.36, 0.00, -49779.10, -33854.78, -47006.84, -34065.64, -49029.45, 0.00, 0.00, 0.00
68, 13707.23, 25393.37, 0.00, -49881.85, -33853.55, -47112.45, -34174.43, -49143.08, 0.00, 0.00, 0.00
69, 13617.78, 25313.89, 0.00, -49973.61, -33946.02, -47198.03, -34263.90, -49229.76, 0.00, 0.00, 0.00
70, 13683.49, 25342.96, 0.00, -49881.65, -33963.65, -47100.62, -34166.70, -49128.33, 0.08, 0.96, 0.24
71, 13757.48, 25404.08, 0.00, -49804.31, -33886.43, -47024.25, -34089.02, -49049.76, 0.00, 0.00, 0.00
72, 13695.49, 25373.50, 0.00, -49892.47, -33871.48, -47117.97, -34182.16, -49147.06, 0.00, 0.00, 0.00
73, 13614.87, 25309.17, 0.00, -49980.22, -33936.47, -47210.17, -34275.66, -49240.04, 0.00, 0.00, 0.00
74, 13638.32, 25302.04, 0.00, -49927.92, -33986.70, -47158.29, -34226.13, -49185.70, 0.00, 0.00, 0.00
75, 13754.01, 25397.24, 0.00, -49797.90, -33902.88, -47027.49, -34100.31, -49059.35, 0.00, 0.00, 0.00
76, 13710.67, 25381.66, 0.00, -49859.95, -33864.34, -47092.38, -34171.48, -49133.54, 0.00, 0.00, 0.00
77, 13635.30, 25329.46, 0.00, -49950.25, -33913.61, -47184.46, -34267.61, -49230.43, 0.00, 0.00, 0.00
78, 13659.96, 25328.13, 0.00, -49906.06, -33955.59, -47137.73, -34224.81, -49184.65, 0.00, 0.00, 0.00
79, 13758.33, 25396.97, 0.00, -49789.94, -33895.59, -47022.64, -34110.13, -49067.62, 0.00, 0.00, 0.00
80, 13727.90, 25386.42, 0.00, -49838.42, -33857.73, -47077.13, -34163.19, -49116.95, 0.07, 0.96, 0.23
81, 13637.54, 25326.04, 0.00, -49948.79, -33896.26, -47190.54, -34275.53, -49230.70, 0.00, 0.00, 0.00
82, 13621.55, 25294.11, 0.00, -49949.02, -33960.25, -47186.23, -34271.30, -49224.93, 0.00, 0.00, 0.00
83, 13732.87, 25373.63, 0.00, -49815.82, -33913.32, -47045.93, -34136.61, -49084.56, 0.00, 0.00, 0.00
84, 13745.56, 25399.81, 0.00, -49817.90, -33849.52, -47045.21, -34138.02, -49088.92, 0.00, 0.00, 0.00
85, 13635.64, 25325.04, 0.00, -49954.54, -33891.10, -47181.98, -34272.09, -49226.83, 0.00, 0.00, 0.00
86, 13600.66, 25280.13, 0.00, -49983.35, -33970.40, -47209.70, -34296.43, -49253.14, 0.00, 0.00, 0.00
87, 13711.48, 25354.05, 0.00, -49848.70, -33937.55, -47071.57, -34158.32, -49113.40, 0.00, 0.00, 0.00
88, 13755.02, 25401.37, 0.00, -49813.45, -33858.51, -47032.72, -34125.79, -49077.63, 0.00, 0.00, 0.00
89, 13658.28, 25338.36, 0.00, -49937.75, -33878.63, -47160.10, -34255.05, -49207.68, 0.00, 0.00, 0.00
90, 13614.74, 25294.19, 0.00, -49978.32, -33948.75, -47202.10, -34297.25, -49248.04, 0.07, 0.96, 0.22
91, 13713.42, 25356.76, 0.00, -49849.62, -33927.24, -47069.44, -34169.09, -49113.91, 0.00, 0.00, 0.00
92, 13768.38, 25405.84, 0.00, -49793.96, -33854.31, -47013.90, -34117.61, -49062.99, 0.00, 0.00, 0.00
93, 13673.21, 25344.20, 0.00, -49917.08, -33869.51, -47139.31, -34244.12, -49192.43, 0.00, 0.00, 0.00
94, 13618.49, 25299.69, 0.00, -49975.86, -33933.86, -47197.41, -34301.57, -49247.80, 0.00, 0.00, 0.00
95, 13702.58, 25348.64, 0.00, -49865.49, -33922.97, -47082.09, -34186.34, -49129.38, 0.00, 0.00, 0.00
96, 13776.52, 25406.11, 0.00, -49788.62, -33861.46, -47008.40, -34113.41, -49056.63, 0.00, 0.00, 0.00
97, 13739.86, 25400.21, 0.00, -49850.98, -33833.66, -47075.68, -34183.57, -49128.62, 0.00, 0.00, 0.00
98, 13644.31, 25323.77, 0.00, -49958.18, -33909.76, -47185.00, -34297.99, -49241.50, 0.00, 0.00, 0.00
99, 13682.58, 25332.82, 0.00, -49896.07, -33949.91, -47123.78, -34235.70, -49179.34, 0.00, 0.00, 0.00
100, 13780.88, 25408.81, 0.00, -49783.93, -33879.92, -47014.39, -34126.13, -49068.00, 0.07, 0.96, 0.22
101, 13756.60, 25410.49, 0.00, -49828.79, -33835.58, -47063.09, -34179.46, -49119.07, 0.00, 0.00, 0.00
102, 13639.28, 25318.20, 0.00, -49962.99, -33912.07, -47197.92, -34316.83, -49257.92, 0.00, 0.00, 0.00
103, 13668.45, 25321.37, 0.00, -49913.28, -33960.10, -47146.11, -34267.32, -49204.26, 0.00, 0.00, 0.00
104, 13778.22, 25401.39, 0.00, -49784.24, -33894.50, -47017.34, -34138.38, -49073.72, 0.00, 0.00, 0.00
105, 13766.46, 25409.04, 0.00, -49812.92, -33840.07, -47046.49, -34170.90, -49109.26, 0.00, 0.00, 0.00
106, 13644.04, 25318.00, 0.00, -49955.16, -33908.02, -47188.00, -34317.84, -49258.30, 0.00, 0.00, 0.00
107, 13635.28, 25292.00, 0.00, -49950.80, -33968.30, -47182.90, -34308.72, -49248.29, 0.00, 0.00, 0.00
108, 13725.98, 25349.29, 0.00, -49836.23, -33933.34, -47062.63, -34189.27, -49124.19, 0.00, 0.00, 0.00
109, 13734.07, 25369.63, 0.00, -49837.62, -33872.82, -47066.89, -34195.35, -49132.62, 0.00, 0.00, 0.00
110, 13635.30, 25304.12, 0.00, -49962.18, -33913.23, -47195.04, -34329.57, -49266.80, 0.08, 0.96, 0.22
111, 13620.84, 25282.37, 0.00, -49968.69, -33971.12, -47199.55, -34336.23, -49270.39, 0.00, 0.00, 0.00
112, 13739.35, 25364.92, 0.00, -49823.47, -33928.34, -47050.11, -34190.16, -49120.86, 0.00, 0.00, 0.00
113, 13783.83, 25408.61, 0.00, -49786.70, -33853.88, -47010.57, -34153.96, -49084.45, 0.00, 0.00, 0.00
114, 13669.68, 25328.19, 0.00, -49929.04, -33887.95, -47155.07, -34299.33, -49230.54, 0.00, 0.00, 0.00
115, 13596.43, 25258.70, 0.00, -49999.82, -33981.89, -47226.15, -34369.63, -49299.21, 0.00, 0.00, 0.00
116, 13688.27, 25314.80, 0.00, -49877.49, -33970.20, -47101.85, -34248.95, -49174.55, 0.00, 0.00, 0.00
117, 13759.62, 25380.36, 0.00, -49801.34, -33884.75, -47025.21, -34176.35, -49100.01, 0.00, 0.00, 0.00
118, 13659.42, 25315.18, 0.00, -49926.80, -33903.62, -47155.61, -34311.13, -49234.97, 0.00, 0.00, 0.00
119, 13584.58, 25251.57, 0.00, -50006.30, -33986.36, -47236.41, -34397.84, -49319.28, 0.08, 0.96, 0.23
120, 13665.97, 25297.48, 0.00, -49896.85, -33986.63, -47126.26, -34287.95, -49206.36, 0.00, 0.00, 0.00
121, 13754.26, 25370.37, 0.00, -49800.40, -33908.67, -47028.88, -34195.08, -49110.98, 0.00, 0.00, 0.00
122, 13684.81, 25331.48, 0.00, -49894.50, -33906.30, -47124.65, -34298.73, -49212.35, 0.00, 0.00, 0.00
123, 13585.88, 25251.37, 0.00, -50008.74, -33985.98, -47241.19, -34415.96, -49329.65, 0.00, 0.00, 0.00
124, 13627.66, 25262.03, 0.00, -49947.03, -34022.15, -47172.75, -34353.38, -49261.01, 0.00, 0.00, 0.00
125, 13728.02, 25340.75, 0.00, -49830.69, -33955.52, -47055.56, -34238.22, -49144.91, 0.00, 0.00, 0.00
126, 13681.30, 25322.74, 0.00, -49893.65, -33925.34, -47121.75, -34311.49, -49220.53, 0.00, 0.00, 0.00
127, 13561.09, 25229.13, 0.00, -50031.29, -34002.14, -47263.86, -34458.16, -49366.31, 0.00, 0.00, 0.00
128, 13594.06, 25237.49, 0.00, -49977.16, -34041.73, -47207.89, -34404.74, -49308.59, 0.00, 0.00, 0.00
129, 13704.99, 25316.32, 0.00, -49845.11, -33971.50, -47075.03, -34269.70, -49172.23, 0.07, 0.96, 0.23
130, 13707.68, 25335.90, 0.00, -49863.30, -33917.59, -47094.14, -34289.68, -49193.86, 0.00, 0.00, 0.00
131, 13620.50, 25282.37, 0.00, -49979.06, -33950.33, -47210.35, -34407.31, -49313.78, 0.00, 0.00, 0.00
132, 13577.75, 25225.48, 0.00, -50009.84, -34035.40, -47237.39, -34432.32, -49335.26, 0.00, 0.00, 0.00
133, 13666.12, 25277.21, 0.00, -49888.80, -34004.64, -47113.56, -34308.50, -49208.66, 0.00, 0.00, 0.00
134, 13706.45, 25325.89, 0.00, -49858.05, -33921.66, -47083.64, -34283.35, -49183.78, 0.00, 0.00, 0.00
135, 13603.05, 25255.12, 0.00, -49992.96, -33960.59, -47223.11, -34421.11, -49326.14, 0.00, 0.00, 0.00
136, 13567.35, 25213.64, 0.00, -50026.24, -34039.67, -47258.71, -34453.69, -49361.28, 0.00, 0.00, 0.00
137, 13658.95, 25269.96, 0.00, -49908.58, -34028.05, -47139.36, -34321.75, -49239.93, 0.00, 0.00, 0.00
138, 13692.54, 25305.44, 0.00, -49876.22, -33967.41, -47107.06, -34292.13, -49209.53, 0.00, 0.00, 0.00
0, 13021.25, 24630.68, 0.00, 0.00, -34659.46, -47781.16, -34995.81, -49892.36, 0.08, 0.96, 0.23
1, 13144.03, 24747.09, 0.00, 0.00, -34528.62, -47661.41, -34879.27, -49776.46, 0.00, 0.00, 0.00
2, 13116.96, 24755.54, 0.00, 0.00, -34482.23, -47717.38, -34941.14, -49839.85, 0.00, 0.00, 0.00
3, 13086.37, 24735.51, 0.00, 0.00, -34518.04, -47750.07, -34977.55, -49873.31, 0.00, 0.00, 0.00
4, 13186.37, 24799.46, 0.00, 0.00, -34496.95, -47621.66, -34849.86, -49743.38, 0.08, 0.96, 0.23
5, 13279.08, 24878.92, 0.00, 0.00, -34407.96, -47519.29, -34750.30, -49644.47, 0.00, 0.00, 0.00
6, 13252.59, 24883.97, 0.00, 0.00, -34361.71, -47575.46, -34802.45, -49701.14, 0.00, 0.00, 0.00
7, 13175.84, 24824.43, 0.00, 0.00, -34418.40, -47667.64, -34893.02, -49793.45, 0.00, 0.00, 0.00
8, 13230.94, 24849.44, 0.00, 0.00, -34440.19, -47581.99, -34808.66, -49705.11, 0.00, 0.00, 0.00
9, 13363.30, 24961.06, 0.00, 0.00, -34338.09, -47432.93, -34660.11, -49556.27, 0.00, 0.00, 0.00
10, 13347.39, 24971.35, 0.00, 0.00, -34275.73, -47477.07, -34699.07, -49601.67, 0.00, 0.00, 0.00
11, 13247.23, 24894.50, 0.00, 0.00, -34329.08, -47600.68, -34815.43, -49723.62, 0.00, 0.00, 0.00
12, 13294.42, 24914.86, 0.00, 0.00, -34360.71, -47532.95, -34749.41, -49655.00, 0.00, 0.00, 0.00
13, 13425.20, 25017.70, 0.00, 0.00, -34276.96, -47380.54, -34599.18, -49501.16, 0.00, 0.00, 0.00
14, 13395.38, 25008.79, 0.00, 0.00, -34235.47, -47430.78, -34650.84, -49554.69, 0.08, 0.96, 0.23
15, 13295.42, 24939.49, 0.00, 0.00, -34285.09, -47554.59, -34776.03, -49684.13, 0.00, 0.00, 0.00
16, 13301.03, 24927.47, 0.00, 0.00, -34336.84, -47531.81, -34754.44, -49658.89, 0.00, 0.00, 0.00
17, 13439.23, 25031.45, 0.00, 0.00, -34264.20, -47366.21, -34590.98, -49491.52, 0.00, 0.00, 0.00
18, 13444.91, 25048.24, 0.00, 0.00, -34202.73, -47375.23, -34601.57, -49505.60, 0.00, 0.00, 0.00
19, 13346.20, 24983.15, 0.00, 0.00, -34237.53, -47498.55, -34728.75, -49634.59, 0.00, 0.00, 0.00
20, 13300.05, 24929.82, 0.00, 0.00, -34320.01, -47534.09, -34759.02, -49664.81, 0.00, 0.00, 0.00
21, 13433.31, 25025.08, 0.00, 0.00, -34270.86, -47374.66, -34599.54, -49502.90, 0.00, 0.00, 0.00
22, 13501.66, 25096.20, 0.00, 0.00, -34172.60, -47317.43, -34540.06, -49449.68, 0.00, 0.00, 0.00
23, 13409.21, 25038.89, 0.00, 0.00, -34185.96, -47440.28, -34667.42, -49582.11, 0.00, 0.00, 0.00
24, 13336.30, 24966.21, 0.00, 0.00, -34276.04, -47500.16, -34742.48, -49656.32, 0.08, 0.96, 0.23
25, 13421.57, 25014.26, 0.00, 0.00, -34272.33, -47379.57, -34623.05, -49534.23, 0.00, 0.00, 0.00
26, 13485.28, 25071.97, 0.00, 0.00, -34198.57, -47318.44, -34556.38, -49471.07, 0.00, 0.00, 0.00
27, 13417.17, 25039.50, 0.00, 0.00, -34185.79, -47418.44, -34654.57, -49575.16, 0.00, 0.00, 0.00
28, 13347.70, 24980.38, 0.00, 0.00, -34255.25, -47497.37, -34735.08, -49655.72, 0.00, 0.00, 0.00
29, 13393.12, 24990.88, 0.00, 0.00, -34283.93, -47423.79, -34662.91, -49578.76, 0.00, 0.00, 0.00
30, 13484.14, 25065.38, 0.00, 0.00, -34205.19, -47322.42, -34561.09, -49477.73, 0.00, 0.00, 0.00
31, 13451.57, 25062.43, 0.00, 0.00, -34168.51, -47385.25, -34627.23, -49545.52, 0.00, 0.00, 0.00
32, 13361.78, 24994.10, 0.00, 0.00, -34233.17, -47489.34, -34733.98, -49652.99, 0.00, 0.00, 0.00
33, 13401.17, 25003.24, 0.00, 0.00, -34269.78, -47424.79, -34671.38, -49586.98, 0.00, 0.00, 0.00
34, 13506.20, 25082.12, 0.00, 0.00, -34200.61, -47307.89, -34555.84, -49471.11, 0.08, 0.95, 0.23
35, 13480.38, 25079.73, 0.00, 0.00, -34156.01, -47359.81, -34607.18, -49525.74, 0.00, 0.00, 0.00
36, 13384.89, 25010.97, 0.00, 0.00, -34212.07, -47475.48, -34716.08, -49639.51, 0.00, 0.00, 0.00
37, 13407.07, 25011.82, 0.00, 0.00, -34250.74, -47432.59, -34669.84, -49593.29, 0.00, 0.00, 0.00
38, 13506.26, 25082.21, 0.00, 0.00, -34197.72, -47311.31, -34546.90, -49467.63, 0.00, 0.00, 0.00
39, 13506.13, 25101.07, 0.00, 0.00, -34136.95, -47327.54, -34561.85, -49485.78, 0.00, 0.00, 0.00
40, 13411.29, 25035.63, 0.00, 0.00, -34178.45, -47450.09, -34687.76, -49614.90, 0.00, 0.00, 0.00
41, 13370.37, 24981.90, 0.00, 0.00, -34263.55, -47468.04, -34715.34, -49637.93, 0.00, 0.00, 0.00
42, 13473.09, 25052.04, 0.00, 0.00, -34225.41, -47331.52, -34585.32, -49503.84, 0.00, 0.00, 0.00
43, 13515.61, 25104.56, 0.00, 0.00, -34137.48, -47301.90, -34556.24, -49476.79, 0.08, 0.95, 0.23
44, 13390.59, 25016.09, 0.00, 0.00, -34183.39, -47455.25, -34709.17, -49632.81, 0.00, 0.00, 0.00
45, 13323.63, 24943.05, 0.00, 0.00, -34282.46, -47514.42, -34765.21, -49689.76, 0.00, 0.00, 0.00
46, 13435.90, 25017.79, 0.00, 0.00, -34241.31, -47369.29, -34619.54, -49541.32, 0.00, 0.00, 0.00
47, 13481.41, 25066.63, 0.00, 0.00, -34175.21, -47327.27, -34587.18, -49504.98, 0.00, 0.00, 0.00
48, 13399.89, 25022.49, 0.00, 0.00, -34185.25, -47439.43, -34703.07, -49620.74, 0.00, 0.00, 0.00
49, 13338.31, 24964.89, 0.00, 0.00, -34267.17, -47501.55, -34767.67, -49686.63, 0.00, 0.00, 0.00
50, 13427.30, 25016.94, 0.00, 0.00, -34260.75, -47383.11, -34649.81, -49565.82, 0.00, 0.00, 0.00
51, 13495.71, 25074.83, 0.00, 0.00, -34182.50, -47316.50, -34582.53, -49498.79, 0.00, 0.00, 0.00
52, 13418.85, 25027.74, 0.00, 0.00, -34186.07, -47431.65, -34695.85, -49615.98, 0.00, 0.00, 0.00
53, 13321.28, 24942.06, 0.00, 0.00, -34277.63, -47539.30, -34801.82, -49721.36, 0.08, 0.96, 0.23
54, 13367.82, 24954.38, 0.00, 0.00, -34308.92, -47462.63, -34728.55, -49643.78, 0.00, 0.00, 0.00
55, 13469.99, 25038.49, 0.00, 0.00, -34227.32, -47355.10, -34619.05, -49534.44, 0.00, 0.00, 0.00
56, 13434.16, 25031.67, 0.00, 0.00, -34182.70, -47421.06, -34682.89, -49601.47, 0.00, 0.00, 0.00
57, 13326.65, 24946.42, 0.00, 0.00, -34262.30, -47540.59, -34803.03, -49724.70, 0.00, 0.00, 0.00
58, 13377.52, 24970.56, 0.00, 0.00, -34292.52, -47459.95, -34724.73, -49641.39, 0.00, 0.00, 0.00
59, 13473.25, 25041.62, 0.00, 0.00, -34230.93, -47342.63, -34611.05, -49523.20, 0.00, 0.00, 0.00
60, 13449.36, 25041.02, 0.00, 0.00, -34195.84, -47388.63, -34662.05, -49580.05, 0.00, 0.00, 0.00
61, 13339.79, 24958.90, 0.00, 0.00, -34262.03, -47520.52, -34795.12, -49715.02, 0.00, 0.00, 0.00
62, 13346.32, 24943.96, 0.00, 0.00, -34308.92, -47496.79, -34766.06, -49685.82, 0.00, 0.00, 0.00
63, 13454.50, 25022.04, 0.00, 0.00, -34247.43, -47365.85, -34630.72, -49550.38, 0.08, 0.95, 0.23
64, 13440.59, 25026.29, 0.00, 0.00, -34201.48, -47393.72, -34665.81, -49585.40, 0.00, 0.00, 0.00
65, 13334.00, 24953.31, 0.00, 0.00, -34253.15, -47525.57, -34803.70, -49726.19, 0.00, 0.00, 0.00
66, 13314.58, 24922.62, 0.00, 0.00, -34318.22, -47533.46, -34812.17, -49732.83, 0.00, 0.00, 0.00
67, 13423.05, 24993.79, 0.00, 0.00, -34278.34, -47397.41, -34677.28, -49595.34, 0.00, 0.00, 0.00
68, 13443.79, 25019.04, 0.00, 0.00, -34208.58, -47384.40, -34666.88, -49587.59, 0.00, 0.00, 0.00
69, 13335.90, 24944.90, 0.00, 0.00, -34243.92, -47518.38, -34798.11, -49722.62, 0.00, 0.00, 0.00
70, 13290.93, 24896.06, 0.00, 0.00, -34321.75, -47558.86, -34832.22, -49757.21, 0.00, 0.00, 0.00
71, 13405.77, 24975.08, 0.00, 0.00, -34282.75, -47413.91, -34686.98, -49608.51, 0.00, 0.00, 0.00
72, 13457.58, 25026.44, 0.00, 0.00, -34205.07, -47364.15, -34636.22, -49562.91, 0.00, 0.00, 0.00
73, 13378.21, 24982.97, 0.00, 0.00, -34210.82, -47472.91, -34751.71, -49680.59, 0.08, 0.96, 0.23
74, 13316.07, 24926.11, 0.00, 0.00, -34286.14, -47532.01, -34821.65, -49748.03, 0.00, 0.00, 0.00
75, 13397.81, 24971.66, 0.00, 0.00, -34284.33, -47421.21, -34712.55, -49635.51, 0.00, 0.00, 0.00
76, 13470.26, 25031.74, 0.00, 0.00, -34212.83, -47350.49, -34638.54, -49563.14, 0.00, 0.00, 0.00
77, 13422.42, 25015.42, 0.00, 0.00, -34187.98, -47429.82, -34714.92, -49643.80, 0.00, 0.00, 0.00
78, 13337.80, 24947.54, 0.00, 0.00, -34255.25, -47525.21, -34808.32, -49739.87, 0.00, 0.00, 0.00
79, 13390.26, 24966.81, 0.00, 0.00, -34278.19, -47444.23, -34723.23, -49658.67, 0.00, 0.00, 0.00
80, 13477.25, 25034.42, 0.00, 0.00, -34206.46, -47342.27, -34622.27, -49555.83, 0.00, 0.00, 0.00
81, 13438.76, 25025.19, 0.00, 0.00, -34173.83, -47403.18, -34688.25, -49618.59, 0.00, 0.00, 0.00
82, 13353.22, 24962.79, 0.00, 0.00, -34231.61, -47505.64, -34787.63, -49723.18, 0.00, 0.00, 0.00
83, 13372.06, 24955.19, 0.00, 0.00, -34281.03, -47462.48, -34744.18, -49678.07, 0.07, 0.95, 0.23
84, 13477.86, 25036.03, 0.00, 0.00, -34220.23, -47337.53, -34618.54, -49552.12, 0.00, 0.00, 0.00
85, 13476.34, 25057.38, 0.00, 0.00, -34152.35, -47360.93, -34639.52, -49581.11, 0.00, 0.00, 0.00
86, 13350.03, 24958.47, 0.00, 0.00, -34228.36, -47512.79, -34791.09, -49735.40, 0.00, 0.00, 0.00
87, 13366.99, 24956.13, 0.00, 0.00, -34274.81, -47475.57, -34753.74, -49695.86, 0.00, 0.00, 0.00
88, 13482.95, 25041.02, 0.00, 0.00, -34211.96, -47332.77, -34611.09, -49553.64, 0.00, 0.00, 0.00
89, 13488.41, 25060.60, 0.00, 0.00, -34152.91, -47343.36, -34622.20, -49568.48, 0.00, 0.00, 0.00
90, 13363.86, 24970.23, 0.00, 0.00, -34209.84, -47492.85, -34773.52, -49721.92, 0.00, 0.00, 0.00
91, 13306.28, 24905.32, 0.00, 0.00, -34308.92, -47537.82, -34818.25, -49764.84, 0.00, 0.00, 0.00
92, 13414.44, 24980.17, 0.00, 0.00, -34276.67, -47401.61, -34681.70, -49625.92, 0.00, 0.00, 0.00
93, 13455.77, 25030.29, 0.00, 0.00, -34199.35, -47369.58, -34653.11, -49598.54, 0.08, 0.96, 0.23
94, 13358.32, 24970.59, 0.00, 0.00, -34221.37, -47497.81, -34784.10, -49730.30, 0.00, 0.00, 0.00
95, 13288.60, 24899.42, 0.00, 0.00, -34314.08, -47564.64, -34854.50, -49798.34, 0.00, 0.00, 0.00
96, 13389.57, 24963.23, 0.00, 0.00, -34306.51, -47434.29, -34726.25, -49667.79, 0.00, 0.00, 0.00
97, 13462.28, 25032.90, 0.00, 0.00, -34224.61, -47366.74, -34659.64, -49599.84, 0.00, 0.00, 0.00
98, 13369.54, 24975.71, 0.00, 0.00, -34241.55, -47488.65, -34787.29, -49728.85, 0.00, 0.00, 0.00
99, 13312.83, 24929.53, 0.00, 0.00, -34311.18, -47548.13, -34847.75, -49790.90, 0.00, 0.00, 0.00
100, 13390.59, 24971.35, 0.00, 0.00, -34312.14, -47440.39, -34740.82, -49677.67, 0.00, 0.00, 0.00
101, 13459.15, 25026.40, 0.00, 0.00, -34247.54, -47366.52, -34670.64, -49601.52, 0.00, 0.00, 0.00
102, 13366.92, 24965.09, 0.00, 0.00, -34257.47, -47488.45, -34795.43, -49726.41, 0.00, 0.00, 0.00
103, 13275.06, 24889.07, 0.00, 0.00, -34339.25, -47593.50, -34902.16, -49833.73, 0.08, 0.96, 0.23
104, 13346.47, 24927.76, 0.00, 0.00, -34351.59, -47495.58, -34802.58, -49732.61, 0.00, 0.00, 0.00
105, 13457.14, 25018.11, 0.00, 0.00, -34259.81, -47369.31, -34678.51, -49608.18, 0.00, 0.00, 0.00
106, 13398.73, 24987.62, 0.00, 0.00, -34236.19, -47454.54, -34763.42, -49697.70, 0.00, 0.00, 0.00
107, 13267.17, 24880.33, 0.00, 0.00, -34328.37, -47600.99, -34912.33, -49848.30, 0.00, 0.00, 0.00
108, 13300.58, 24888.42, 0.00, 0.00, -34366.95, -47542.74, -34858.08, -49789.65, 0.00, 0.00, 0.00
109, 13406.00, 24962.83, 0.00, 0.00, -34305.03, -47419.65, -34734.14, -49663.63, 0.00, 0.00, 0.00
110, 13410.24, 24986.08, 0.00, 0.00, -34237.55, -47434.13, -34746.43, -49677.36, 0.00, 0.00, 0.00
111, 13293.54, 24899.75, 0.00, 0.00, -34294.41, -47575.38, -34887.32, -49819.11, 0.00, 0.00, 0.00
112, 13287.89, 24876.17, 0.00, 0.00, -34361.09, -47561.58, -34874.84, -49804.54, 0.00, 0.00, 0.00
113, 13408.50, 24964.06, 0.00, 0.00, -34301.03, -47411.02, -34725.87, -49656.79, 0.08, 0.97, 0.23
114, 13420.97, 24990.19, 0.00, 0.00, -34232.75, -47412.23, -34729.22, -49663.94, 0.00, 0.00, 0.00
115, 13315.67, 24919.47, 0.00, 0.00, -34270.21, -47545.49, -34865.55, -49800.22, 0.00, 0.00, 0.00
116, 13298.64, 24894.19, 0.00, 0.00, -34330.73, -47553.71, -34874.78, -49805.99, 0.00, 0.00, 0.00
117, 13407.69, 24969.15, 0.00, 0.00, -34293.99, -47417.10, -34739.62, -49668.14, 0.00, 0.00, 0.00
118, 13444.78, 25009.72, 0.00, 0.00, -34225.82, -47392.76, -34716.44, -49647.07, 0.00, 0.00, 0.00
119, 13335.47, 24932.88, 0.00, 0.00, -34260.06, -47534.89, -34862.98, -49792.51, 0.00, 0.00, 0.00
120, 13252.15, 24851.67, 0.00, 0.00, -34364.55, -47614.64, -34949.99, -49872.93, 0.00, 0.00, 0.00
121, 13334.92, 24898.97, 0.00, 0.00, -34370.59, -47500.65, -34843.69, -49754.51, 0.00, 0.00, 0.00
122, 13412.28, 24969.31, 0.00, 0.00, -34284.27, -47424.95, -34766.86, -49678.88, 0.00, 0.00, 0.00
123, 13349.40, 24939.36, 0.00, 0.00, -34269.96, -47522.07, -34863.11, -49782.12, 0.07, 0.96, 0.23
124, 13282.03, 24880.69, 0.00, 0.00, -34340.55, -47593.14, -34945.12, -49857.98, 0.00, 0.00, 0.00
125, 13362.01, 24925.95, 0.00, 0.00, -34342.63, -47480.94, -34836.51, -49743.63, 0.00, 0.00, 0.00
126, 13444.95, 24997.38, 0.00, 0.00, -34263.79, -47387.91, -34740.51, -49648.79, 0.00, 0.00, 0.00
127, 13378.59, 24963.34, 0.00, 0.00, -34244.35, -47485.09, -34834.52, -49744.34, 0.00, 0.00, 0.00
128, 13273.05, 24875.43, 0.00, 0.00, -34330.51, -47605.88, -34953.46, -49862.67, 0.00, 0.00, 0.00
129, 13338.60, 24911.33, 0.00, 0.00, -34343.97, -47511.49, -34860.45, -49765.75, 0.00, 0.00, 0.00
130, 13436.73, 24986.66, 0.00, 0.00, -34261.40, -47398.75, -34744.02, -49653.01, 0.00, 0.00, 0.00
131, 13385.92, 24961.78, 0.00, 0.00, -34236.25, -47468.75, -34818.36, -49730.44, 0.00, 0.00, 0.00
132, 13284.56, 24884.93, 0.00, 0.00, -34303.71, -47578.05, -34939.51, -49850.89, 0.07, 0.96, 0.23
133, 13273.92, 24852.43, 0.00, 0.00, -34375.82, -47561.40, -34927.41, -49839.27, 0.00, 0.00, 0.00
134, 13390.48, 24938.38, 0.00, 0.00, -34309.61, -47423.79, -34787.07, -49700.36, 0.00, 0.00, 0.00
135, 13394.93, 24960.97, 0.00, 0.00, -34244.44, -47442.11, -34802.87, -49718.77, 0.00, 0.00, 0.00
136, 13299.20, 24896.40, 0.00, 0.00, -34287.46, -47563.75, -34926.81, -49841.77, 0.00, 0.00, 0.00
137, 13297.77, 24881.16, 0.00, 0.00, -34341.24, -47542.09, -34910.50, -49819.18, 0.00, 0.00, 0.00
138, 13394.46, 24942.96, 0.00, 0.00, -34301.41, -47416.39, -34786.84, -49694.41, 0.00, 0.00, 0.00
139, 13403.74, 24961.73, 0.00, 0.00, -34245.29, -47421.06, -34791.32, -49703.13, 0.00, 0.00, 0.00
140, 13284.63, 24876.17, 0.00, 0.00, -34293.32, -47570.88, -34940.31, -49854.76, 0.00, 0.00, 0.00
141, 13245.51, 24829.79, 0.00, 0.00, -34376.09, -47606.82, -34974.82, -49889.81, 0.00, 0.00, 0.00
142, 13358.47, 24906.46, 0.00, 0.00, -34344.44, -47465.47, -34834.05, -49745.79, 0.07, 0.96, 0.22
143, 13386.42, 24938.02, 0.00, 0.00, -34285.32, -47442.07, -34815.01, -49724.70, 0.00, 0.00, 0.00
144, 13289.03, 24877.00, 0.00, 0.00, -34307.73, -47570.48, -34946.55, -49858.56, 0.00, 0.00, 0.00
145, 13227.20, 24817.12, 0.00, 0.00, -34389.32, -47632.23, -35012.80, -49922.60, 0.00, 0.00, 0.00
146, 13323.36, 24877.07, 0.00, 0.00, -34376.49, -47505.79, -34888.32, -49796.60, 0.00, 0.00, 0.00
147, 13399.22, 24944.57, 0.00, 0.00, -34290.46, -47428.25, -34811.21, -49722.55, 0.00, 0.00, 0.00
148, 13314.13, 24891.30, 0.00, 0.00, -34296.58, -47544.06, -34926.50, -49837.53, 0.00, 0.00, 0.00
149, 13234.80, 24824.54, 0.00, 0.00, -34371.82, -47631.14, -35006.32, -49919.87, 0.00, 0.00, 0.00
150, 13301.92, 24855.88, 0.00, 0.00, -34384.09, -47533.42, -34907.46, -49821.52, 0.00, 0.00, 0.00
151, 13388.34, 24924.23, 0.00, 0.00, -34306.17, -47437.60, -34811.61, -49726.68, 0.00, 0.00, 0.00
152, 13326.83, 24892.40, 0.00, 0.00, -34287.95, -47527.47, -34901.89, -49820.11, 0.08, 0.96, 0.23
153, 13214.71, 24801.99, 0.00, 0.00, -34372.76, -47651.30, -35027.11, -49948.14, 0.00, 0.00, 0.00
154, 13263.73, 24822.46, 0.00, 0.00, -34401.32, -47573.99, -34951.71, -49870.25, 0.00, 0.00, 0.00
155, 13357.89, 24892.62, 0.00, 0.00, -34334.89, -47463.61, -34842.55, -49760.01, 0.00, 0.00, 0.00
156, 13336.62, 24895.46, 0.00, 0.00, -34286.79, -47503.87, -34887.23, -49809.43, 0.00, 0.00, 0.00
0, 13044.46, 24573.57, 0.00, 0.00, 0.00, -47776.54, -35164.01, -50083.64, 0.08, 0.95, 0.23
1, 13090.48, 24629.70, 0.00, 0.00, 0.00, -47748.62, -35134.97, -50060.17, 0.00, 0.00, 0.00
2, 13013.14, 24586.07, 0.00, 0.00, 0.00, -47855.11, -35239.13, -50167.28, 0.00, 0.00, 0.00
3, 12986.16, 24554.71, 0.00, 0.00, 0.00, -47870.73, -35257.37, -50182.01, 0.00, 0.00, 0.00
4, 13097.88, 24632.72, 0.00, 0.00, 0.00, -47730.38, -35117.81, -50040.39, 0.00, 0.00, 0.00
5, 13155.14, 24690.83, 0.00, 0.00, 0.00, -47681.57, -35071.52, -49995.64, 0.00, 0.00, 0.00
6, 13051.92, 24622.99, 0.00, 0.00, 0.00, -47813.17, -35205.67, -50135.16, 0.00, 0.00, 0.00
7, 12983.14, 24556.86, 0.00, 0.00, 0.00, -47880.32, -35272.82, -50201.28, 0.00, 0.00, 0.00
8, 13087.19, 24626.19, 0.00, 0.00, 0.00, -47745.87, -35136.83, -50061.51, 0.00, 0.00, 0.00
9, 13179.46, 24712.07, 0.00, 0.00, 0.00, -47651.64, -35041.36, -49966.63, 0.08, 0.95, 0.24
10, 13088.17, 24654.62, 0.00, 0.00, 0.00, -47773.43, -35160.63, -50092.54, 0.00, 0.00, 0.00
11, 13002.17, 24580.97, 0.00, 0.00, 0.00, -47861.72, -35252.25, -50185.45, 0.00, 0.00, 0.00
12, 13070.72, 24615.82, 0.00, 0.00, 0.00, -47755.71, -35156.07, -50083.93, 0.00, 0.00, 0.00
13, 13183.35, 24709.47, 0.00, 0.00, 0.00, -47637.42, -35038.86, -49963.66, 0.00, 0.00, 0.00
14, 13130.38, 24685.53, 0.00, 0.00, 0.00, -47719.97, -35118.57, -50046.61, 0.00, 0.00, 0.00
15, 13018.75, 24594.54, 0.00, 0.00, 0.00, -47846.25, -35244.52, -50173.50, 0.00, 0.00, 0.00
16, 13067.54, 24611.62, 0.00, 0.00, 0.00, -47774.33, -35169.80, -50099.62, 0.00, 0.00, 0.00
17, 13165.49, 24684.08, 0.00, 0.00, 0.00, -47657.52, -35053.79, -49983.28, 0.00, 0.00, 0.00
18, 13144.55, 24686.41, 0.00, 0.00, 0.00, -47696.32, -35098.21, -50028.28, 0.00, 0.00, 0.00
19, 13029.26, 24599.61, 0.00, 0.00, 0.00, -47835.13, -35236.27, -50171.21, 0.07, 0.96, 0.24
20, 13031.54, 24581.13, 0.00, 0.00, 0.00, -47812.68, -35213.81, -50147.30, 0.00, 0.00, 0.00
21, 13171.35, 24689.78, 0.00, 0.00, 0.00, -47650.09, -35048.14, -49982.77, 0.00, 0.00, 0.00
22, 13178.83, 24714.14, 0.00, 0.00, 0.00, -47663.55, -35060.90, -50001.88, 0.00, 0.00, 0.00
23, 13057.49, 24625.63, 0.00, 0.00, 0.00, -47812.48, -35214.97, -50158.41, 0.00, 0.00, 0.00
24, 13025.79, 24581.40, 0.00, 0.00, 0.00, -47828.80, -35235.78, -50173.65, 0.00, 0.00, 0.00
25, 13143.52, 24663.61, 0.00, 0.00, 0.00, -47687.20, -35094.29, -50032.05, 0.00, 0.00, 0.00
26, 13187.01, 24716.40, 0.00, 0.00, 0.00, -47658.68, -35064.95, -50008.34, 0.00, 0.00, 0.00
27, 13099.42, 24664.61, 0.00, 0.00, 0.00, -47779.47, -35181.36, -50130.34, 0.00, 0.00, 0.00
28, 13043.29, 24604.78, 0.00, 0.00, 0.00, -47829.33, -35232.99, -50181.16, 0.00, 0.00, 0.00
29, 13140.77, 24664.79, 0.00, 0.00, 0.00, -47701.73, -35111.62, -50053.06, 0.07, 0.96, 0.24
30, 13206.39, 24729.63, 0.00, 0.00, 0.00, -47642.27, -35052.77, -49996.43, 0.00, 0.00, 0.00
31, 13123.49, 24679.97, 0.00, 0.00, 0.00, -47758.64, -35166.58, -50114.42, 0.00, 0.00, 0.00
32, 13060.59, 24621.45, 0.00, 0.00, 0.00, -47821.04, -35231.51, -50177.30, 0.00, 0.00, 0.00
33, 13154.20, 24678.36, 0.00, 0.00, 0.00, -47696.81, -35108.13, -50053.69, 0.00, 0.00, 0.00
34, 13233.06, 24748.25, 0.00, 0.00, 0.00, -47615.38, -35024.09, -49971.37, 0.00, 0.00, 0.00
35, 13156.33, 24702.32, 0.00, 0.00, 0.00, -47725.60, -35139.87, -50085.23, 0.00, 0.00, 0.00
36, 13058.07, 24619.57, 0.00, 0.00, 0.00, -47831.61, -35248.12, -50194.91, 0.00, 0.00, 0.00
37, 13114.19, 24643.38, 0.00, 0.00, 0.00, -47746.39, -35166.56, -50111.25, 0.00, 0.00, 0.00
38, 13229.97, 24738.24, 0.00, 0.00, 0.00, -47618.64, -35041.03, -49982.45, 0.00, 0.00, 0.00
39, 13160.37, 24696.71, 0.00, 0.00, 0.00, -47712.97, -35137.21, -50078.95, 0.08, 0.96, 0.23
40, 13052.46, 24609.63, 0.00, 0.00, 0.00, -47834.39, -35262.85, -50206.20, 0.00, 0.00, 0.00
41, 13105.79, 24635.82, 0.00, 0.00, 0.00, -47751.17, -35183.41, -50124.21, 0.00, 0.00, 0.00
42, 13210.57, 24715.46, 0.00, 0.00, 0.00, -47629.02, -35057.82, -49998.95, 0.00, 0.00, 0.00
43, 13195.87, 24723.35, 0.00, 0.00, 0.00, -47665.81, -35095.05, -50036.52, 0.00, 0.00, 0.00
44, 13053.93, 24608.87, 0.00, 0.00, 0.00, -47832.33, -35263.23, -50205.17, 0.00, 0.00, 0.00
45, 13049.95, 24584.21, 0.00, 0.00, 0.00, -47817.84, -35254.38, -50192.41, 0.00, 0.00, 0.00
46, 13171.97, 24674.29, 0.00, 0.00, 0.00, -47667.69, -35110.14, -50048.15, 0.00, 0.00, 0.00
47, 13177.31, 24696.22, 0.00, 0.00, 0.00, -47678.93, -35122.10, -50064.46, 0.00, 0.00, 0.00
48, 13075.39, 24628.87, 0.00, 0.00, 0.00, -47810.85, -35256.41, -50195.85, 0.08, 0.95, 0.23
49, 13051.74, 24596.95, 0.00, 0.00, 0.00, -47834.95, -35283.28, -50218.98, 0.00, 0.00, 0.00
50, 13180.55, 24685.85, 0.00, 0.00, 0.00, -47687.38, -35135.24, -50069.56, 0.00, 0.00, 0.00
51, 13200.09, 24704.24, 0.00, 0.00, 0.00, -47656.18, -35106.36, -50042.52, 0.00, 0.00, 0.00
52, 13068.30, 24603.71, 0.00, 0.00, 0.00, -47802.04, -35254.71, -50194.91, 0.00, 0.00, 0.00
53, 13004.67, 24537.03, 0.00, 0.00, 0.00, -47862.17, -35310.77, -50252.55, 0.00, 0.00, 0.00
54, 13090.03, 24582.13, 0.00, 0.00, 0.00, -47749.52, -35196.89, -50134.96, 0.00, 0.00, 0.00
55, 13154.92, 24641.10, 0.00, 0.00, 0.00, -47687.13, -35134.77, -50069.89, 0.00, 0.00, 0.00
56, 13065.98, 24582.78, 0.00, 0.00, 0.00, -47804.01, -35249.64, -50191.96, 0.00, 0.00, 0.00
57, 12975.14, 24495.68, 0.00, 0.00, 0.00, -47896.37, -35341.62, -50283.64, 0.00, 0.00, 0.00
58, 13073.45, 24557.66, 0.00, 0.00, 0.00, -47763.93, -35210.32, -50148.80, 0.08, 0.96, 0.23
59, 13140.68, 24615.95, 0.00, 0.00, 0.00, -47691.07, -35135.49, -50074.72, 0.00, 0.00, 0.00
60, 13057.91, 24565.64, 0.00, 0.00, 0.00, -47803.59, -35245.39, -50189.30, 0.00, 0.00, 0.00
61, 12941.06, 24463.60, 0.00, 0.00, 0.00, -47932.04, -35369.54, -50318.22, 0.00, 0.00, 0.00
62, 13025.75, 24514.92, 0.00, 0.00, 0.00, -47817.24, -35259.00, -50205.57, 0.00, 0.00, 0.00
63, 13133.57, 24603.64, 0.00, 0.00, 0.00, -47692.16, -35143.25, -50090.91, 0.00, 0.00, 0.00
64, 13084.13, 24582.56, 0.00, 0.00, 0.00, -47768.49, -35223.26, -50172.67, 0.00, 0.00, 0.00
65, 12971.88, 24493.78, 0.00, 0.00, 0.00, -47904.75, -35356.84, -50306.53, 0.00, 0.00, 0.00
66, 12994.14, 24490.04, 0.00, 0.00, 0.00, -47863.89, -35316.85, -50264.09, 0.00, 0.00, 0.00
67, 13123.25, 24590.76, 0.00, 0.00, 0.00, -47714.58, -35170.54, -50117.50, 0.00, 0.00, 0.00
68, 13124.47, 24611.08, 0.00, 0.00, 0.00, -47734.41, -35192.42, -50143.28, 0.08, 0.95, 0.23
69, 12994.30, 24509.04, 0.00, 0.00, 0.00, -47887.02, -35346.55, -50301.35, 0.00, 0.00, 0.00
70, 12992.98, 24490.13, 0.00, 0.00, 0.00, -47868.83, -35331.29, -50283.64, 0.00, 0.00, 0.00
71, 13102.12, 24567.23, 0.00, 0.00, 0.00, -47733.82, -35200.75, -50145.78, 0.00, 0.00, 0.00
72, 13122.13, 24601.00, 0.00, 0.00, 0.00, -47730.34, -35196.31, -50148.59, 0.00, 0.00, 0.00
73, 13015.55, 24526.66, 0.00, 0.00, 0.00, -47865.03, -35330.82, -50285.03, 0.00, 0.00, 0.00
74, 12987.86, 24492.06, 0.00, 0.00, 0.00, -47882.62, -35349.02, -50300.79, 0.00, 0.00, 0.00
75, 13106.06, 24572.46, 0.00, 0.00, 0.00, -47740.06, -35205.79, -50159.88, 0.00, 0.00, 0.00
76, 13152.93, 24622.86, 0.00, 0.00, 0.00, -47703.47, -35170.00, -50127.50, 0.00, 0.00, 0.00
77, 13049.28, 24554.15, 0.00, 0.00, 0.00, -47838.34, -35301.65, -50263.35, 0.00, 0.00, 0.00
78, 12986.77, 24490.11, 0.00, 0.00, 0.00, -47897.86, -35356.75, -50318.83, 0.08, 0.96, 0.23
79, 13076.15, 24539.62, 0.00, 0.00, 0.00, -47781.28, -35236.34, -50197.93, 0.00, 0.00, 0.00
80, 13148.41, 24606.88, 0.00, 0.00, 0.00, -47711.07, -35165.46, -50130.65, 0.00, 0.00, 0.00
81, 13060.55, 24552.18, 0.00, 0.00, 0.00, -47824.24, -35281.69, -50252.44, 0.00, 0.00, 0.00
82, 12999.77, 24498.99, 0.00, 0.00, 0.00, -47886.73, -35348.46, -50317.13, 0.00, 0.00, 0.00
83, 13079.03, 24544.07, 0.00, 0.00, 0.00, -47776.76, -35237.34, -50199.96, 0.00, 0.00, 0.00
84, 13173.72, 24624.31, 0.00, 0.00, 0.00, -47675.09, -35132.92, -50095.20, 0.00, 0.00, 0.00
85, 13116.47, 24595.48, 0.00, 0.00, 0.00, -47763.87, -35223.06, -50189.75, 0.00, 0.00, 0.00
86, 13004.62, 24500.66, 0.00, 0.00, 0.00, -47889.17, -35347.96, -50314.91, 0.00, 0.00, 0.00
87, 13029.12, 24497.71, 0.00, 0.00, 0.00, -47830.09, -35289.96, -50254.21, 0.00, 0.00, 0.00
88, 13147.25, 24595.70, 0.00, 0.00, 0.00, -47695.65, -35153.77, -50122.54, 0.07, 0.96, 0.22
89, 13128.83, 24599.97, 0.00, 0.00, 0.00, -47737.87, -35198.45, -50169.23, 0.00, 0.00, 0.00
90, 13022.26, 24515.08, 0.00, 0.00, 0.00, -47862.17, -35322.48, -50294.73, 0.00, 0.00, 0.00
91, 13035.80, 24505.22, 0.00, 0.00, 0.00, -47827.12, -35283.70, -50257.92, 0.00, 0.00, 0.00
92, 13153.15, 24595.61, 0.00, 0.00, 0.00, -47692.05, -35145.70, -50120.52, 0.00, 0.00, 0.00
93, 13152.19, 24616.60, 0.00, 0.00, 0.00, -47712.34, -35167.16, -50144.21, 0.00, 0.00, 0.00
94, 13025.63, 24519.66, 0.00, 0.00, 0.00, -47863.00, -35318.21, -50300.05, 0.00, 0.00, 0.00
95, 13018.39, 24494.92, 0.00, 0.00, 0.00, -47856.80, -35313.18, -50294.48, 0.00, 0.00, 0.00
96, 13132.21, 24575.05, 0.00, 0.00, 0.00, -47721.24, -35177.09, -50157.76, 0.00, 0.00, 0.00
97, 13145.91, 24601.98, 0.00, 0.00, 0.00, -47718.20, -35177.00, -50160.93, 0.00, 0.00, 0.00
98, 13045.33, 24537.16, 0.00, 0.00, 0.00, -47838.54, -35301.09, -50289.61, 0.08, 0.96, 0.22
99, 13009.63, 24495.63, 0.00, 0.00, 0.00, -47866.17, -35324.72, -50314.58, 0.00, 0.00, 0.00
100, 13090.57, 24541.19, 0.00, 0.00, 0.00, -47756.82, -35212.91, -50200.65, 0.00, 0.00, 0.00
101, 13130.55, 24583.36, 0.00, 0.00, 0.00, -47723.07, -35176.08, -50165.23, 0.00, 0.00, 0.00
102, 13061.89, 24547.76, 0.00, 0.00, 0.00, -47825.11, -35274.47, -50270.28, 0.00, 0.00, 0.00
103, 12993.14, 24480.81, 0.00, 0.00, 0.00, -47898.76, -35345.46, -50344.91, 0.00, 0.00, 0.00
104, 13071.48, 24523.95, 0.00, 0.00, 0.00, -47790.00, -35238.69, -50239.14, 0.00, 0.00, 0.00
105, 13159.01, 24603.55, 0.00, 0.00, 0.00, -47698.31, -35152.95, -50155.35, 0.00, 0.00, 0.00
106, 13078.74, 24557.55, 0.00, 0.00, 0.00, -47809.51, -35260.66, -50268.76, 0.00, 0.00, 0.00
107, 12973.53, 24466.98, 0.00, 0.00, 0.00, -47922.05, -35367.25, -50378.21, 0.00, 0.00, 0.00
108, 13060.57, 24521.00, 0.00, 0.00, 0.00, -47806.67, -35251.07, -50263.02, 0.08, 0.96, 0.23
109, 13161.62, 24603.57, 0.00, 0.00, 0.00, -47698.15, -35142.44, -50155.73, 0.00, 0.00, 0.00
110, 13102.68, 24570.98, 0.00, 0.00, 0.00, -47783.67, -35229.45, -50246.88, 0.00, 0.00, 0.00
111, 12997.81, 24483.00, 0.00, 0.00, 0.00, -47904.70, -35349.77, -50366.48, 0.00, 0.00, 0.00
112, 13035.49, 24491.95, 0.00, 0.00, 0.00, -47841.29, -35284.64, -50297.61, 0.00, 0.00, 0.00
113, 13135.83, 24571.25, 0.00, 0.00, 0.00, -47726.80, -35169.82, -50185.41, 0.00, 0.00, 0.00
114, 13100.27, 24561.57, 0.00, 0.00, 0.00, -47782.30, -35229.28, -50247.43, 0.00, 0.00, 0.00
115, 12968.86, 24455.58, 0.00, 0.00, 0.00, -47930.97, -35378.74, -50400.25, 0.00, 0.00, 0.00
116, 12986.12, 24449.86, 0.00, 0.00, 0.00, -47891.45, -35340.66, -50358.28, 0.00, 0.00, 0.00
117, 13110.15, 24545.32, 0.00, 0.00, 0.00, -47740.48, -35195.28, -50209.64, 0.00, 0.00, 0.00
118, 13109.59, 24562.67, 0.00, 0.00, 0.00, -47759.20, -35211.73, -50232.79, 0.08, 0.96, 0.23
119, 13000.29, 24484.46, 0.00, 0.00, 0.00, -47898.13, -35339.02, -50368.25, 0.00, 0.00, 0.00
120, 12976.22, 24446.24, 0.00, 0.00, 0.00, -47909.55, -35352.46, -50378.06, 0.00, 0.00, 0.00
121, 13086.05, 24522.48, 0.00, 0.00, 0.00, -47770.08, -35218.48, -50242.05, 0.00, 0.00, 0.00
122, 13122.42, 24566.71, 0.00, 0.00, 0.00, -47752.40, -35195.77, -50225.55, 0.00, 0.00, 0.00
123, 12991.71, 24470.15, 0.00, 0.00, 0.00, -47915.59, -35358.36, -50392.77, 0.00, 0.00, 0.00
124, 12951.38, 24425.11, 0.00, 0.00, 0.00, -47948.80, -35387.95, -50421.71, 0.00, 0.00, 0.00
125, 13075.08, 24510.74, 0.00, 0.00, 0.00, -47795.23, -35227.64, -50264.76, 0.00, 0.00, 0.00
126, 13114.95, 24549.99, 0.00, 0.00, 0.00, -47759.21, -35187.66, -50231.90, 0.00, 0.00, 0.00
127, 13010.15, 24478.65, 0.00, 0.00, 0.00, -47890.89, -35319.84, -50369.68, 0.00, 0.00, 0.00
128, 12941.57, 24411.32, 0.00, 0.00, 0.00, -47955.91, -35385.52, -50438.86, 0.08, 0.95, 0.23
129, 13002.55, 24437.47, 0.00, 0.00, 0.00, -47863.04, -35294.39, -50346.72, 0.00, 0.00, 0.00
130, 13072.84, 24500.51, 0.00, 0.00, 0.00, -47792.92, -35224.36, -50277.23, 0.00, 0.00, 0.00
131, 13013.25, 24474.18, 0.00, 0.00, 0.00, -47882.73, -35314.32, -50369.63, 0.00, 0.00, 0.00
132, 12905.65, 24380.16, 0.00, 0.00, 0.00, -48000.19, -35432.52, -50486.31, 0.00, 0.00, 0.00
133, 12967.68, 24409.27, 0.00, 0.00, 0.00, -47906.85, -35338.82, -50393.28, 0.00, 0.00, 0.00
134, 13061.42, 24488.55, 0.00, 0.00, 0.00, -47797.91, -35236.88, -50292.25, 0.00, 0.00, 0.00
135, 13013.57, 24472.19, 0.00, 0.00, 0.00, -47872.88, -35312.36, -50372.23, 0.00, 0.00, 0.00
136, 12902.19, 24382.38, 0.00, 0.00, 0.00, -47999.97, -35437.15, -50498.09, 0.00, 0.00, 0.00
137, 12943.13, 24391.65, 0.00, 0.00, 0.00, -47934.52, -35366.98, -50431.21, 0.08, 0.96, 0.23
138, 13041.21, 24463.96, 0.00, 0.00, 0.00, -47816.10, -35250.24, -50313.75, 0.00, 0.00, 0.00
139, 12993.20, 24439.91, 0.00, 0.00, 0.00, -47884.41, -35316.45, -50384.36, 0.00, 0.00, 0.00
140, 12881.44, 24353.97, 0.00, 0.00, 0.00, -48016.20, -35449.13, -50520.39, 0.00, 0.00, 0.00
0, 12332.35, 23758.54, 0.00, 0.00, 0.00, 0.00, -35971.02, -51061.46, 0.08, 0.96, 0.23
1, 12307.41, 23769.98, 0.00, 0.00, 0.00, 0.00, -36023.57, -51119.15, 0.00, 0.00, 0.00
2, 12318.45, 23777.29, 0.00, 0.00, 0.00, 0.00, -36001.11, -51099.48, 0.00, 0.00, 0.00
3, 12488.75, 23908.95, 0.00, 0.00, 0.00, 0.00, -35796.63, -50896.71, 0.00, 0.00, 0.00
4, 12586.20, 24005.50, 0.00, 0.00, 0.00, 0.00, -35701.03, -50806.45, 0.00, 0.00, 0.00
5, 12510.56, 23965.47, 0.00, 0.00, 0.00, 0.00, -35803.61, -50914.68, 0.00, 0.00, 0.00
6, 12467.04, 23929.51, 0.00, 0.00, 0.00, 0.00, -35850.39, -50958.60, 0.00, 0.00, 0.00
7, 12565.79, 23993.43, 0.00, 0.00, 0.00, 0.00, -35712.66, -50826.01, 0.00, 0.00, 0.00
8, 12681.42, 24098.67, 0.00, 0.00, 0.00, 0.00, -35582.10, -50705.55, 0.00, 0.00, 0.00
9, 12625.29, 24075.38, 0.00, 0.00, 0.00, 0.00, -35671.93, -50797.29, 0.00, 0.00, 0.00
10, 12546.91, 24012.32, 0.00, 0.00, 0.00, 0.00, -35758.59, -50885.00, 0.08, 0.96, 0.23
11, 12656.14, 24090.91, 0.00, 0.00, 0.00, 0.00, -35619.94, -50743.29, 0.00, 0.00, 0.00
12, 12791.08, 24207.18, 0.00, 0.00, 0.00, 0.00, -35475.30, -50601.15, 0.00, 0.00, 0.00
13, 12757.59, 24202.07, 0.00, 0.00, 0.00, 0.00, -35532.57, -50663.42, 0.00, 0.00, 0.00
14, 12629.12, 24097.82, 0.00, 0.00, 0.00, 0.00, -35673.85, -50807.10, 0.00, 0.00, 0.00
15, 12679.83, 24121.60, 0.00, 0.00, 0.00, 0.00, -35596.65, -50725.85, 0.00, 0.00, 0.00
16, 12817.29, 24232.96, 0.00, 0.00, 0.00, 0.00, -35434.24, -50560.40, 0.00, 0.00, 0.00
17, 12789.94, 24227.46, 0.00, 0.00, 0.00, 0.00, -35484.27, -50616.57, 0.00, 0.00, 0.00
18, 12680.50, 24147.13, 0.00, 0.00, 0.00, 0.00, -35615.71, -50750.08, 0.00, 0.00, 0.00
19, 12696.19, 24144.94, 0.00, 0.00, 0.00, 0.00, -35579.64, -50712.39, 0.00, 0.00, 0.00
20, 12816.36, 24235.24, 0.00, 0.00, 0.00, 0.00, -35433.06, -50564.02, 0.07, 0.96, 0.23
21, 12821.14, 24257.23, 0.00, 0.00, 0.00, 0.00, -35439.74, -50576.81, 0.00, 0.00, 0.00
22, 12702.96, 24171.58, 0.00, 0.00, 0.00, 0.00, -35581.96, -50726.59, 0.00, 0.00, 0.00
23, 12687.70, 24143.41, 0.00, 0.00, 0.00, 0.00, -35586.48, -50727.08, 0.00, 0.00, 0.00
24, 12809.14, 24230.32, 0.00, 0.00, 0.00, 0.00, -35438.49, -50576.05, 0.00, 0.00, 0.00
25, 12854.85, 24280.14, 0.00, 0.00, 0.00, 0.00, -35403.24, -50546.50, 0.00, 0.00, 0.00
26, 12761.44, 24221.71, 0.00, 0.00, 0.00, 0.00, -35524.48, -50673.46, 0.00, 0.00, 0.00
27, 12706.59, 24166.82, 0.00, 0.00, 0.00, 0.00, -35567.59, -50719.68, 0.00, 0.00, 0.00
28, 12816.67, 24243.73, 0.00, 0.00, 0.00, 0.00, -35422.51, -50573.70, 0.00, 0.00, 0.00
29, 12889.54, 24315.26, 0.00, 0.00, 0.00, 0.00, -35349.59, -50502.47, 0.00, 0.00, 0.00
30, 12781.53, 24244.47, 0.00, 0.00, 0.00, 0.00, -35489.76, -50644.22, 0.08, 0.96, 0.23
31, 12704.17, 24175.60, 0.00, 0.00, 0.00, 0.00, -35578.68, -50724.53, 0.00, 0.00, 0.00
32, 12810.37, 24245.79, 0.00, 0.00, 0.00, 0.00, -35444.72, -50590.38, 0.00, 0.00, 0.00
33, 12899.59, 24323.21, 0.00, 0.00, 0.00, 0.00, -35351.50, -50498.87, 0.00, 0.00, 0.00
34, 12818.19, 24273.77, 0.00, 0.00, 0.00, 0.00, -35465.27, -50612.48, 0.00, 0.00, 0.00
35, 12718.52, 24190.31, 0.00, 0.00, 0.00, 0.00, -35577.96, -50721.80, 0.00, 0.00, 0.00
36, 12803.46, 24243.10, 0.00, 0.00, 0.00, 0.00, -35464.93, -50602.76, 0.00, 0.00, 0.00
37, 12906.77, 24326.79, 0.00, 0.00, 0.00, 0.00, -35351.81, -50491.85, 0.00, 0.00, 0.00
38, 12849.41, 24298.58, 0.00, 0.00, 0.00, 0.00, -35436.39, -50581.84, 0.00, 0.00, 0.00
39, 12725.85, 24196.92, 0.00, 0.00, 0.00, 0.00, -35576.64, -50724.51, 0.00, 0.00, 0.00
40, 12752.25, 24196.39, 0.00, 0.00, 0.00, 0.00, -35526.02, -50675.11, 0.08, 0.96, 0.23
41, 12885.76, 24302.58, 0.00, 0.00, 0.00, 0.00, -35376.53, -50521.69, 0.00, 0.00, 0.00
42, 12859.81, 24298.11, 0.00, 0.00, 0.00, 0.00, -35418.21, -50568.56, 0.00, 0.00, 0.00
43, 12740.90, 24207.56, 0.00, 0.00, 0.00, 0.00, -35559.43, -50711.01, 0.00, 0.00, 0.00
44, 12734.10, 24180.99, 0.00, 0.00, 0.00, 0.00, -35552.66, -50697.44, 0.00, 0.00, 0.00
45, 12859.56, 24273.50, 0.00, 0.00, 0.00, 0.00, -35407.35, -50545.96, 0.00, 0.00, 0.00
46, 12882.34, 24309.06, 0.00, 0.00, 0.00, 0.00, -35400.49, -50542.93, 0.00, 0.00, 0.00
47, 12765.48, 24226.12, 0.00, 0.00, 0.00, 0.00, -35541.20, -50690.94, 0.00, 0.00, 0.00
48, 12720.91, 24175.89, 0.00, 0.00, 0.00, 0.00, -35578.43, -50723.30, 0.00, 0.00, 0.00
49, 12847.47, 24266.04, 0.00, 0.00, 0.00, 0.00, -35428.74, -50568.16, 0.00, 0.00, 0.00
50, 12898.74, 24320.06, 0.00, 0.00, 0.00, 0.00, -35385.02, -50527.39, 0.07, 0.96, 0.23
51, 12781.42, 24237.58, 0.00, 0.00, 0.00, 0.00, -35532.16, -50682.04, 0.00, 0.00, 0.00
52, 12729.65, 24186.17, 0.00, 0.00, 0.00, 0.00, -35581.67, -50733.74, 0.00, 0.00, 0.00
53, 12823.17, 24242.12, 0.00, 0.00, 0.00, 0.00, -35457.11, -50607.05, 0.00, 0.00, 0.00
54, 12901.61, 24314.21, 0.00, 0.00, 0.00, 0.00, -35375.93, -50530.27, 0.00, 0.00, 0.00
55, 12819.82, 24265.90, 0.00, 0.00, 0.00, 0.00, -35484.31, -50643.95, 0.00, 0.00, 0.00
56, 12731.31, 24186.53, 0.00, 0.00, 0.00, 0.00, -35575.32, -50735.69, 0.00, 0.00, 0.00
57, 12804.33, 24226.29, 0.00, 0.00, 0.00, 0.00, -35471.57, -50631.15, 0.00, 0.00, 0.00
58, 12888.17, 24296.44, 0.00, 0.00, 0.00, 0.00, -35382.83, -50544.78, 0.00, 0.00, 0.00
59, 12827.87, 24265.79, 0.00, 0.00, 0.00, 0.00, -35471.93, -50640.60, 0.00, 0.00, 0.00
60, 12716.11, 24171.94, 0.00, 0.00, 0.00, 0.00, -35600.72, -50768.66, 0.08, 0.95, 0.24
61, 12778.07, 24203.72, 0.00, 0.00, 0.00, 0.00, -35518.95, -50681.17, 0.00, 0.00, 0.00
62, 12881.38, 24282.58, 0.00, 0.00, 0.00, 0.00, -35401.12, -50560.43, 0.00, 0.00, 0.00
63, 12842.24, 24265.52, 0.00, 0.00, 0.00, 0.00, -35461.45, -50629.36, 0.00, 0.00, 0.00
64, 12721.41, 24172.83, 0.00, 0.00, 0.00, 0.00, -35605.48, -50774.87, 0.00, 0.00, 0.00
65, 12745.95, 24176.76, 0.00, 0.00, 0.00, 0.00, -35562.88, -50727.42, 0.00, 0.00, 0.00
66, 12856.19, 24258.86, 0.00, 0.00, 0.00, 0.00, -35427.67, -50598.40, 0.00, 0.00, 0.00
67, 12837.28, 24259.04, 0.00, 0.00, 0.00, 0.00, -35462.58, -50640.33, 0.00, 0.00, 0.00
68, 12717.00, 24170.17, 0.00, 0.00, 0.00, 0.00, -35604.23, -50782.76, 0.00, 0.00, 0.00
69, 12712.31, 24148.73, 0.00, 0.00, 0.00, 0.00, -35601.34, -50778.56, 0.07, 0.96, 0.23
70, 12829.81, 24227.70, 0.00, 0.00, 0.00, 0.00, -35449.44, -50624.62, 0.00, 0.00, 0.00
71, 12837.14, 24243.01, 0.00, 0.00, 0.00, 0.00, -35433.97, -50613.04, 0.00, 0.00, 0.00
72, 12725.79, 24165.61, 0.00, 0.00, 0.00, 0.00, -35574.30, -50756.61, 0.00, 0.00, 0.00
73, 12686.13, 24118.02, 0.00, 0.00, 0.00, 0.00, -35605.37, -50785.29, 0.00, 0.00, 0.00
74, 12795.97, 24192.88, 0.00, 0.00, 0.00, 0.00, -35460.17, -50636.82, 0.00, 0.00, 0.00
75, 12840.32, 24240.09, 0.00, 0.00, 0.00, 0.00, -35423.20, -50604.13, 0.00, 0.00, 0.00
76, 12731.17, 24164.34, 0.00, 0.00, 0.00, 0.00, -35564.71, -50751.78, 0.00, 0.00, 0.00
77, 12674.98, 24110.16, 0.00, 0.00, 0.00, 0.00, -35622.31, -50807.46, 0.00, 0.00, 0.00
78, 12774.13, 24173.39, 0.00, 0.00, 0.00, 0.00, -35497.00, -50676.75, 0.00, 0.00, 0.00
79, 12845.21, 24240.13, 0.00, 0.00, 0.00, 0.00, -35424.77, -50603.83, 0.07, 0.96, 0.22
80, 12768.03, 24196.63, 0.00, 0.00, 0.00, 0.00, -35528.43, -50714.23, 0.00, 0.00, 0.00
81, 12675.65, 24117.40, 0.00, 0.00, 0.00, 0.00, -35628.05, -50813.14, 0.00, 0.00, 0.00
82, 12732.76, 24143.15, 0.00, 0.00, 0.00, 0.00, -35536.64, -50720.67, 0.00, 0.00, 0.00
83, 12826.37, 24220.42, 0.00, 0.00, 0.00, 0.00, -35435.92, -50619.97, 0.00, 0.00, 0.00
84, 12772.21, 24195.29, 0.00, 0.00, 0.00, 0.00, -35526.13, -50711.73, 0.00, 0.00, 0.00
85, 12667.85, 24110.96, 0.00, 0.00, 0.00, 0.00, -35646.65, -50834.55, 0.00, 0.00, 0.00
86, 12724.96, 24137.74, 0.00, 0.00, 0.00, 0.00, -35565.40, -50753.50, 0.00, 0.00, 0.00
87, 12830.82, 24218.96, 0.00, 0.00, 0.00, 0.00, -35441.98, -50631.21, 0.00, 0.00, 0.00
88, 12798.21, 24211.50, 0.00, 0.00, 0.00, 0.00, -35492.42, -50684.64, 0.00, 0.00, 0.00
89, 12681.73, 24122.65, 0.00, 0.00, 0.00, 0.00, -35627.85, -50820.24, 0.07, 0.96, 0.23
90, 12695.23, 24112.68, 0.00, 0.00, 0.00, 0.00, -35593.57, -50787.16, 0.00, 0.00, 0.00
91, 12820.09, 24206.65, 0.00, 0.00, 0.00, 0.00, -35445.26, -50637.96, 0.00, 0.00, 0.00
92, 12805.18, 24209.64, 0.00, 0.00, 0.00, 0.00, -35478.95, -50672.01, 0.00, 0.00, 0.00
93, 12676.84, 24113.20, 0.00, 0.00, 0.00, 0.00, -35639.39, -50832.04, 0.00, 0.00, 0.00
94, 12666.26, 24087.63, 0.00, 0.00, 0.00, 0.00, -35637.48, -50829.07, 0.00, 0.00, 0.00
95, 12790.47, 24174.71, 0.00, 0.00, 0.00, 0.00, -35485.79, -50678.00, 0.00, 0.00, 0.00
96, 12818.41, 24212.84, 0.00, 0.00, 0.00, 0.00, -35475.70, -50669.48, 0.00, 0.00, 0.00
97, 12697.74, 24127.16, 0.00, 0.00, 0.00, 0.00, -35627.59, -50825.83, 0.00, 0.00, 0.00
98, 12679.34, 24103.29, 0.00, 0.00, 0.00, 0.00, -35639.79, -50837.83, 0.00, 0.00, 0.00
99, 12787.57, 24176.83, 0.00, 0.00, 0.00, 0.00, -35503.02, -50697.02, 0.08, 0.95, 0.23
100, 12834.95, 24225.56, 0.00, 0.00, 0.00, 0.00, -35457.11, -50651.04, 0.00, 0.00, 0.00
101, 12728.89, 24154.52, 0.00, 0.00, 0.00, 0.00, -35589.74, -50789.35, 0.00, 0.00, 0.00
102, 12656.29, 24085.66, 0.00, 0.00, 0.00, 0.00, -35661.02, -50861.82, 0.00, 0.00, 0.00
103, 12742.26, 24137.07, 0.00, 0.00, 0.00, 0.00, -35544.01, -50739.24, 0.00, 0.00, 0.00
104, 12813.45, 24198.80, 0.00, 0.00, 0.00, 0.00, -35467.50, -50664.38, 0.00, 0.00, 0.00
105, 12727.89, 24146.75, 0.00, 0.00, 0.00, 0.00, -35577.16, -50779.47, 0.00, 0.00, 0.00
106, 12641.52, 24072.80, 0.00, 0.00, 0.00, 0.00, -35666.61, -50870.94, 0.00, 0.00, 0.00
107, 12708.78, 24106.82, 0.00, 0.00, 0.00, 0.00, -35567.73, -50772.23, 0.00, 0.00, 0.00
108, 12814.66, 24195.32, 0.00, 0.00, 0.00, 0.00, -35450.13, -50655.11, 0.00, 0.00, 0.00
109, 12754.98, 24163.33, 0.00, 0.00, 0.00, 0.00, -35535.18, -50749.70, 0.08, 0.95, 0.23
110, 12638.12, 24066.70, 0.00, 0.00, 0.00, 0.00, -35664.26, -50891.72, 0.00, 0.00, 0.00
111, 12684.48, 24085.37, 0.00, 0.00, 0.00, 0.00, -35592.56, -50821.41, 0.00, 0.00, 0.00
112, 12815.93, 24193.68, 0.00, 0.00, 0.00, 0.00, -35440.70, -50672.66, 0.00, 0.00, 0.00
113, 12792.22, 24193.95, 0.00, 0.00, 0.00, 0.00, -35487.06, -50728.13, 0.00, 0.00, 0.00
114, 12678.83, 24106.58, 0.00, 0.00, 0.00, 0.00, -35623.07, -50867.05, 0.00, 0.00, 0.00
115, 12699.10, 24106.82, 0.00, 0.00, 0.00, 0.00, -35582.07, -50828.36, 0.00, 0.00, 0.00
116, 12812.38, 24188.92, 0.00, 0.00, 0.00, 0.00, -35439.29, -50689.75, 0.00, 0.00, 0.00
117, 12808.38, 24199.03, 0.00, 0.00, 0.00, 0.00, -35460.73, -50717.49, 0.00, 0.00, 0.00
118, 12689.62, 24110.74, 0.00, 0.00, 0.00, 0.00, -35609.79, -50872.21, 0.00, 0.00, 0.00
119, 12666.60, 24074.19, 0.00, 0.00, 0.00, 0.00, -35622.24, -50882.79, 0.08, 0.95, 0.23
120, 12799.82, 24171.87, 0.00, 0.00, 0.00, 0.00, -35466.09, -50722.10, 0.00, 0.00, 0.00
121, 12835.22, 24214.72, 0.00, 0.00, 0.00, 0.00, -35443.92, -50704.28, 0.00, 0.00, 0.00
122, 12698.83, 24115.56, 0.00, 0.00, 0.00, 0.00, -35607.76, -50873.06, 0.00, 0.00, 0.00
123, 12657.86, 24072.13, 0.00, 0.00, 0.00, 0.00, -35640.95, -50905.49, 0.00, 0.00, 0.00
124, 12772.12, 24150.48, 0.00, 0.00, 0.00, 0.00, -35493.21, -50756.59, 0.00, 0.00, 0.00
125, 12819.53, 24196.75, 0.00, 0.00, 0.00, 0.00, -35444.70, -50712.89, 0.00, 0.00, 0.00
126, 12730.55, 24142.14, 0.00, 0.00, 0.00, 0.00, -35564.29, -50835.18, 0.00, 0.00, 0.00
127, 12655.96, 24075.24, 0.00, 0.00, 0.00, 0.00, -35644.64, -50910.05, 0.00, 0.00, 0.00
128, 12760.79, 24143.88, 0.00, 0.00, 0.00, 0.00, -35513.01, -50774.20, 0.00, 0.00, 0.00
129, 12839.53, 24212.01, 0.00, 0.00, 0.00, 0.00, -35430.46, -50695.54, 0.08, 0.96, 0.23
130, 12737.05, 24143.77, 0.00, 0.00, 0.00, 0.00, -35561.60, -50832.47, 0.00, 0.00, 0.00
131, 12637.21, 24062.12, 0.00, 0.00, 0.00, 0.00, -35671.89, -50942.95, 0.00, 0.00, 0.00
132, 12709.18, 24104.41, 0.00, 0.00, 0.00, 0.00, -35569.18, -50837.03, 0.00, 0.00, 0.00
133, 12816.07, 24192.39, 0.00, 0.00, 0.00, 0.00, -35445.89, -50714.05, 0.00, 0.00, 0.00
134, 12752.36, 24156.65, 0.00, 0.00, 0.00, 0.00, -35529.64, -50802.88, 0.00, 0.00, 0.00
135, 12640.02, 24065.14, 0.00, 0.00, 0.00, 0.00, -35656.13, -50931.64, 0.00, 0.00, 0.00
136, 12671.34, 24071.24, 0.00, 0.00, 0.00, 0.00, -35598.59, -50872.70, 0.00, 0.00, 0.00
137, 12795.39, 24165.99, 0.00, 0.00, 0.00, 0.00, -35454.85, -50730.41, 0.00, 0.00, 0.00
138, 12775.59, 24166.39, 0.00, 0.00, 0.00, 0.00, -35496.51, -50772.07, 0.00, 0.00, 0.00
139, 12644.20, 24062.57, 0.00, 0.00, 0.00, 0.00, -35651.43, -50929.12, 0.08, 0.95, 0.23
140, 12639.91, 24037.27, 0.00, 0.00, 0.00, 0.00, -35638.61, -50915.44, 0.00, 0.00, 0.00
141, 12767.34, 24133.45, 0.00, 0.00, 0.00, 0.00, -35482.52, -50755.16, 0.00, 0.00, 0.00
142, 12776.44, 24157.99, 0.00, 0.00, 0.00, 0.00, -35485.76, -50765.75, 0.00, 0.00, 0.00
143, 12663.11, 24077.61, 0.00, 0.00, 0.00, 0.00, -35628.05, -50909.49, 0.00, 0.00, 0.00
144, 12631.13, 24036.80, 0.00, 0.00, 0.00, 0.00, -35647.03, -50925.70, 0.00, 0.00, 0.00
145, 12739.02, 24109.80, 0.00, 0.00, 0.00, 0.00, -35505.70, -50781.89, 0.00, 0.00, 0.00
146, 12777.49, 24149.36, 0.00, 0.00, 0.00, 0.00, -35478.03, -50756.56, 0.00, 0.00, 0.00
147, 12654.17, 24059.60, 0.00, 0.00, 0.00, 0.00, -35634.40, -50915.02, 0.00, 0.00, 0.00
148, 12592.35, 23998.58, 0.00, 0.00, 0.00, 0.00, -35695.22, -50969.15, 0.00, 0.00, 0.00
149, 12688.95, 24059.57, 0.00, 0.00, 0.00, 0.00, -35572.51, -50843.00, 0.08, 0.95, 0.23
150, 12750.53, 24116.44, 0.00, 0.00, 0.00, 0.00, -35513.19, -50787.05, 0.00, 0.00, 0.00
151, 12665.71, 24065.81, 0.00, 0.00, 0.00, 0.00, -35627.27, -50906.88, 0.00, 0.00, 0.00
152, 12577.91, 23987.91, 0.00, 0.00, 0.00, 0.00, -35719.92, -51000.02, 0.00, 0.00, 0.00
153, 12666.04, 24042.50, 0.00, 0.00, 0.00, 0.00, -35604.52, -50882.87, 0.00, 0.00, 0.00
154, 12755.38, 24120.79, 0.00, 0.00, 0.00, 0.00, -35509.46, -50786.89, 0.00, 0.00, 0.00
155, 12666.87, 24064.92, 0.00, 0.00, 0.00, 0.00, -35625.37, -50903.97, 0.00, 0.00, 0.00
156, 12567.87, 23983.04, 0.00, 0.00, 0.00, 0.00, -35736.44, -51015.20, 0.00, 0.00, 0.00
157, 12623.68, 24009.08, 0.00, 0.00, 0.00, 0.00, -35656.69, -50931.84, 0.00, 0.00, 0.00
158, 12742.86, 24107.27, 0.00, 0.00, 0.00, 0.00, -35526.31, -50802.81, 0.08, 0.95, 0.23
159, 12685.37, 24075.15, 0.00, 0.00, 0.00, 0.00, -35608.70, -50891.34, 0.00, 0.00, 0.00
160, 12561.99, 23975.66, 0.00, 0.00, 0.00, 0.00, -35744.51, -51025.21, 0.00, 0.00, 0.00
161, 12604.55, 23992.27, 0.00, 0.00, 0.00, 0.00, -35676.24, -50953.57, 0.00, 0.00, 0.00
162, 12740.25, 24097.77, 0.00, 0.00, 0.00, 0.00, -35522.38, -50799.97, 0.00, 0.00, 0.00
163, 12708.02, 24084.92, 0.00, 0.00, 0.00, 0.00, -35577.96, -50860.30, 0.00, 0.00, 0.00
164, 12594.34, 24001.23, 0.00, 0.00, 0.00, 0.00, -35719.63, -51005.43, 0.00, 0.00, 0.00
165, 12590.51, 23981.50, 0.00, 0.00, 0.00, 0.00, -35708.30, -50988.73, 0.00, 0.00, 0.00
166, 12713.56, 24070.44, 0.00, 0.00, 0.00, 0.00, -35560.75, -50839.64, 0.00, 0.00, 0.00
167, 12721.99, 24091.47, 0.00, 0.00, 0.00, 0.00, -35566.70, -50850.62, 0.00, 0.00, 0.00
