%OpenBCI Raw EEG Data
%
%Sample Rate = 250.0 Hz
%First Column = SampleIndex
%Other Columns = EEG data in microvolts followed by Accel Data (in G) interleaved with Aux Data
0, 2351.87, 4822.95, 17648.29, 548.74, 5640.64, 36053.88, 19853.85, -18341.77, 0.05, 0.95, 0.29
1, 2431.58, 4898.72, 17114.13, 545.81, 5678.37, 35478.45, 19424.43, -18293.34, 0.00, 0.00, 0.00
2, 2526.89, 4988.75, 16621.29, 637.27, 5760.22, 35337.86, 19312.82, -18189.22, 0.00, 0.00, 0.00
3, 2462.02, 4928.20, 17114.42, 644.80, 5726.29, 35816.19, 19659.28, -18220.61, 0.00, 0.00, 0.00
4, 2354.44, 4826.28, 17744.58, 563.67, 5632.24, 36076.63, 19868.53, -18317.57, 0.00, 0.00, 0.00
5, 2403.73, 4872.55, 17384.96, 535.97, 5633.33, 35577.56, 19494.72, -18295.24, 0.00, 0.00, 0.00
6, 2509.52, 4974.51, 16751.20, 618.09, 5724.55, 35291.19, 19272.01, -18188.51, 0.00, 0.00, 0.00
7, 2477.24, 4945.44, 17053.89, 649.59, 5744.20, 35723.96, 19592.11, -18189.56, 0.02, 0.93, 0.35
8, 2367.18, 4841.81, 17746.35, 574.80, 5653.74, 36086.67, 19869.72, -18284.87, 0.00, 0.00, 0.00
9, 2388.82, 4863.83, 17637.72, 532.33, 5630.49, 35690.10, 19579.26, -18287.24, 0.00, 0.00, 0.00
10, 2506.70, 4975.81, 16971.03, 604.68, 5727.66, 35280.71, 19266.06, -18178.47, 0.00, 0.00, 0.00
11, 2500.96, 4968.75, 17143.29, 651.75, 5765.92, 35627.36, 19526.17, -18158.04, 0.00, 0.00, 0.00
12, 2391.28, 4863.67, 17872.07, 595.65, 5680.65, 36058.64, 19862.45, -18250.31, 0.00, 0.00, 0.00
13, 2390.76, 4863.16, 17891.59, 550.39, 5645.36, 35806.31, 19682.03, -18265.78, 0.00, 0.00, 0.00
14, 2509.16, 4978.74, 17204.58, 609.73, 5728.60, 35310.82, 19287.14, -18161.78, 0.00, 0.00, 0.00
15, 2527.33, 5001.52, 17207.65, 670.64, 5776.92, 35566.25, 19464.81, -18111.04, 0.00, 0.00, 0.00
16, 2418.53, 4899.64, 17962.44, 615.19, 5716.15, 36049.99, 19832.79, -18186.18, 0.00, 0.00, 0.00
17, 2368.41, 4852.85, 18210.41, 532.93, 5650.10, 35916.41, 19758.90, -18236.43, 0.02, 0.92, 0.36
18, 2483.35, 4963.67, 17596.95, 582.13, 5719.99, 35360.13, 19334.41, -18135.45, 0.00, 0.00, 0.00
19, 2520.34, 5001.52, 17516.48, 653.25, 5777.57, 35480.38, 19419.11, -18066.51, 0.00, 0.00, 0.00
20, 2432.03, 4915.64, 18318.64, 623.59, 5734.97, 35974.08, 19787.95, -18123.06, 0.00, 0.00, 0.00
21, 2365.42, 4847.62, 18836.53, 543.17, 5658.75, 36002.38, 19831.00, -18191.28, 0.00, 0.00, 0.00
22, 2456.52, 4935.06, 18291.21, 555.53, 5691.45, 35425.61, 19392.39, -18125.56, 0.00, 0.00, 0.00
23, 2515.53, 4990.79, 17876.86, 627.50, 5763.13, 35404.31, 19358.58, -18041.32, 0.00, 0.00, 0.00
24, 2439.45, 4918.99, 18367.97, 619.55, 5732.26, 35887.25, 19716.09, -18083.88, 0.00, 0.00, 0.00
25, 2360.75, 4842.35, 18903.38, 551.28, 5661.14, 36057.81, 19865.02, -18155.85, 0.00, 0.00, 0.00
26, 2436.25, 4915.17, 18408.87, 547.04, 5681.99, 35524.54, 19459.72, -18104.11, 0.02, 0.91, 0.38
27, 2524.47, 5002.36, 17797.13, 625.87, 5769.70, 35359.81, 19328.78, -18005.98, 0.00, 0.00, 0.00
28, 2465.04, 4948.07, 18162.71, 631.82, 5755.78, 35814.71, 19672.51, -18033.59, 0.00, 0.00, 0.00
29, 2364.14, 4850.78, 18723.23, 556.42, 5667.02, 36091.56, 19894.53, -18121.97, 0.00, 0.00, 0.00
30, 2388.37, 4871.29, 18325.50, 506.02, 5647.10, 35597.68, 19521.66, -18127.42, 0.00, 0.00, 0.00
31, 2533.26, 5009.27, 17644.49, 621.31, 5779.83, 35319.62, 19350.15, -17985.08, 0.00, 0.00, 0.00
32, 2546.38, 5012.60, 17842.01, 698.34, 5831.66, 35774.70, 19778.07, -17933.81, 0.00, 0.00, 0.00
33, 2480.04, 4950.44, 18425.55, 678.46, 5791.74, 36187.79, 20173.46, -17978.18, 0.00, 0.00, 0.00
34, 2541.73, 5016.60, 18242.87, 685.44, 5819.95, 35885.16, 20005.46, -17940.98, 0.00, 0.00, 0.00
35, 2628.19, 5099.62, 17493.86, 724.78, 5880.39, 35445.33, 19512.71, -17868.48, 0.00, 0.00, 0.00
36, 2556.15, 5027.15, 17470.68, 702.20, 5848.80, 35706.48, 19589.94, -17909.58, 0.02, 0.92, 0.38
37, 2425.48, 4900.42, 18045.19, 626.92, 5757.83, 36111.57, 19918.49, -18014.68, 0.00, 0.00, 0.00
38, 2394.92, 4868.17, 18001.16, 549.96, 5690.02, 35859.28, 19735.23, -18068.97, 0.00, 0.00, 0.00
39, 2487.21, 4956.23, 17264.73, 581.55, 5735.14, 35340.48, 19299.66, -17999.17, 0.00, 0.00, 0.00
40, 2489.76, 4958.06, 17162.74, 623.08, 5765.25, 35536.43, 19408.55, -17973.73, 0.00, 0.00, 0.00
41, 2359.85, 4835.44, 17782.51, 554.37, 5678.97, 35992.36, 19716.79, -18079.45, 0.00, 0.00, 0.00
42, 2268.88, 4749.72, 18077.80, 435.81, 5583.49, 35863.91, 19641.39, -18172.66, 0.00, 0.00, 0.00
43, 2358.24, 4833.43, 17688.75, 440.82, 5637.36, 35282.03, 19194.13, -18107.68, 0.00, 0.00, 0.00
44, 2402.79, 4876.32, 17672.52, 509.91, 5696.48, 35369.15, 19246.15, -18042.37, 0.00, 0.00, 0.00
45, 2331.15, 4809.85, 18500.94, 506.51, 5664.85, 35870.93, 19658.16, -18086.79, 0.00, 0.00, 0.00
46, 2338.57, 4820.18, 19142.39, 500.68, 5671.98, 35988.41, 19868.15, -18081.76, 0.03, 0.90, 0.40
47, 2462.63, 4940.36, 18685.48, 541.43, 5751.86, 35461.27, 19396.08, -17985.22, 0.00, 0.00, 0.00
48, 2495.57, 4969.26, 18268.77, 582.06, 5790.53, 35387.06, 19234.66, -17935.42, 0.00, 0.00, 0.00
49, 2415.87, 4892.82, 18732.35, 572.72, 5746.61, 35853.05, 19640.12, -17979.38, 0.00, 0.00, 0.00
50, 2319.51, 4799.01, 19207.59, 485.17, 5656.18, 36030.61, 19831.67, -18061.62, 0.00, 0.00, 0.00
51, 2402.05, 4879.36, 18763.48, 484.16, 5688.16, 35521.79, 19493.67, -18010.05, 0.00, 0.00, 0.00
52, 2510.91, 4979.30, 18210.90, 577.37, 5790.76, 35345.06, 19377.51, -17894.92, 0.00, 0.00, 0.00
53, 2526.51, 4997.92, 18549.91, 657.05, 5849.07, 35851.41, 19898.10, -17838.44, 0.00, 0.00, 0.00
54, 2440.72, 4924.00, 18980.12, 600.97, 5780.23, 36172.77, 20082.53, -17906.59, 0.00, 0.00, 0.00
55, 2456.75, 4935.29, 18494.91, 547.98, 5753.32, 35706.78, 19654.92, -17919.04, 0.00, 0.00, 0.00
56, 2591.44, 5057.93, 17845.56, 653.92, 5871.94, 35418.21, 19432.23, -17785.26, 0.02, 0.89, 0.40
57, 2583.06, 5053.62, 18068.72, 705.64, 5899.65, 35824.57, 19755.95, -17759.27, 0.00, 0.00, 0.00
58, 2465.73, 4938.89, 18684.29, 627.35, 5808.41, 36187.34, 20046.18, -17857.08, 0.00, 0.00, 0.00
59, 2454.31, 4920.40, 18521.68, 558.59, 5758.50, 35831.90, 19764.82, -17898.81, 0.00, 0.00, 0.00
60, 2541.93, 5003.75, 17787.90, 598.94, 5807.97, 35378.32, 19376.82, -17826.21, 0.00, 0.00, 0.00
61, 2524.32, 4985.71, 17754.08, 631.01, 5823.50, 35657.25, 19568.42, -17807.70, 0.00, 0.00, 0.00
62, 2411.48, 4874.76, 18285.71, 572.05, 5742.74, 36081.21, 19903.65, -17899.28, 0.00, 0.00, 0.00
63, 2386.14, 4849.52, 18275.50, 512.19, 5694.29, 35874.55, 19772.89, -17943.73, 0.00, 0.00, 0.00
64, 2497.74, 4956.75, 17561.97, 560.94, 5769.97, 35360.93, 19364.25, -17858.57, 0.00, 0.00, 0.00
65, 2530.62, 4988.17, 17410.55, 628.44, 5822.88, 35551.01, 19503.33, -17799.68, 0.00, 0.00, 0.00
66, 2423.24, 4883.27, 17942.10, 579.63, 5746.05, 36012.26, 19843.86, -17882.80, 0.02, 0.90, 0.41
67, 2366.63, 4824.94, 18086.96, 500.30, 5673.39, 35950.28, 19809.34, -17952.79, 0.00, 0.00, 0.00
68, 2466.83, 4921.14, 17454.37, 529.83, 5728.33, 35412.18, 19386.81, -17879.65, 0.00, 0.00, 0.00
69, 2530.28, 4981.29, 17202.55, 618.76, 5812.93, 35487.21, 19450.17, -17793.17, 0.00, 0.00, 0.00
70, 2464.97, 4920.58, 17734.21, 620.10, 5781.59, 35976.70, 19847.63, -17831.80, 0.00, 0.00, 0.00
71, 2404.67, 4860.14, 18052.16, 555.51, 5711.56, 36058.14, 19942.20, -17900.44, 0.00, 0.00, 0.00
72, 2498.01, 4949.39, 17474.32, 574.42, 5760.60, 35523.94, 19525.21, -17836.31, 0.00, 0.00, 0.00
73, 2569.80, 5019.29, 17048.75, 650.30, 5851.73, 35455.30, 19457.04, -17743.46, 0.00, 0.00, 0.00
74, 2508.69, 4963.27, 17441.63, 653.39, 5816.77, 35921.51, 19805.12, -17779.72, 0.00, 0.00, 0.00
75, 2410.21, 4865.15, 17821.04, 565.45, 5713.91, 36109.71, 19961.38, -17878.80, 0.00, 0.00, 0.00
76, 2477.67, 4926.35, 17380.40, 557.88, 5735.50, 35613.68, 19576.06, -17844.56, 0.03, 0.90, 0.42
77, 2552.88, 4997.87, 16889.18, 622.74, 5806.51, 35390.77, 19383.99, -17763.69, 0.00, 0.00, 0.00
78, 2499.28, 4946.73, 17178.30, 629.40, 5795.90, 35795.80, 19696.94, -17787.90, 0.00, 0.00, 0.00
79, 2387.75, 4839.51, 17657.07, 551.42, 5706.78, 36091.50, 19941.40, -17888.37, 0.00, 0.00, 0.00
80, 2413.00, 4865.39, 17358.36, 514.00, 5704.59, 35677.27, 19628.14, -17891.34, 0.00, 0.00, 0.00
81, 2501.99, 4950.49, 16759.65, 561.90, 5774.60, 35335.13, 19348.65, -17807.79, 0.00, 0.00, 0.00
82, 2466.92, 4914.99, 17000.22, 576.56, 5772.14, 35670.50, 19612.72, -17811.70, 0.00, 0.00, 0.00
83, 2357.51, 4807.66, 17712.44, 512.59, 5678.55, 36041.36, 19924.26, -17902.34, 0.00, 0.00, 0.00
84, 2372.82, 4822.39, 17730.56, 478.55, 5663.78, 35764.94, 19725.91, -17903.75, 0.00, 0.00, 0.00
85, 2464.03, 4908.69, 17205.28, 514.65, 5727.28, 35310.91, 19365.01, -17824.00, 0.00, 0.00, 0.00
86, 2448.95, 4891.32, 17295.40, 544.67, 5736.93, 35561.58, 19542.31, -17813.38, 0.05, 0.89, 0.45
87, 2332.29, 4778.67, 17876.66, 483.74, 5650.77, 35977.97, 19854.74, -17910.56, 0.00, 0.00, 0.00
88, 2297.11, 4744.00, 17918.28, 413.80, 5596.81, 35796.34, 19722.82, -17963.49, 0.00, 0.00, 0.00
89, 2418.35, 4862.15, 17297.50, 473.14, 5676.78, 35301.18, 19332.98, -17855.15, 0.00, 0.00, 0.00
90, 2464.57, 4907.17, 17189.18, 548.53, 5751.48, 35473.09, 19489.74, -17774.98, 0.00, 0.00, 0.00
91, 2397.87, 4845.54, 17769.95, 532.17, 5726.18, 35953.16, 19888.16, -17817.94, 0.00, 0.00, 0.00
92, 2352.88, 4800.28, 18075.90, 467.67, 5674.01, 35936.64, 19895.53, -17866.58, 0.00, 0.00, 0.00
93, 2464.03, 4910.77, 17601.93, 507.59, 5745.69, 35420.34, 19474.78, -17777.39, 0.00, 0.00, 0.00
94, 2507.64, 4954.02, 17396.25, 562.82, 5800.34, 35450.40, 19464.68, -17718.61, 0.00, 0.00, 0.00
95, 2415.02, 4867.32, 17921.03, 537.65, 5742.27, 35896.09, 19791.04, -17779.38, 0.00, 0.00, 0.00
96, 2320.20, 4777.37, 18291.28, 447.95, 5648.64, 35985.23, 19855.86, -17868.28, 0.04, 0.87, 0.45
97, 2388.66, 4845.54, 17870.53, 438.61, 5677.97, 35452.35, 19424.16, -17828.55, 0.00, 0.00, 0.00
98, 2469.09, 4928.43, 17488.81, 512.17, 5749.16, 35353.13, 19363.23, -17741.56, 0.00, 0.00, 0.00
99, 2397.09, 4857.97, 17812.87, 504.12, 5710.04, 35782.21, 19711.24, -17786.33, 0.00, 0.00, 0.00
100, 2313.58, 4766.71, 18201.31, 437.54, 5650.97, 35994.44, 19881.36, -17861.32, 0.00, 0.00, 0.00
101, 2349.17, 4806.18, 17808.89, 406.27, 5661.14, 35519.34, 19484.64, -17841.01, 0.00, 0.00, 0.00
102, 2458.67, 4919.24, 17313.95, 496.30, 5744.08, 35307.33, 19331.38, -17727.35, 0.00, 0.00, 0.00
103, 2461.35, 4937.50, 17614.43, 561.86, 5770.88, 35742.67, 19727.11, -17700.14, 0.00, 0.00, 0.00
104, 2406.23, 4874.33, 18166.92, 542.90, 5733.31, 36095.65, 20100.50, -17747.66, 0.00, 0.00, 0.00
105, 2477.31, 4930.88, 18021.27, 552.02, 5763.11, 35768.45, 19873.58, -17710.05, 0.00, 0.00, 0.00
106, 2605.59, 5055.41, 17495.74, 643.01, 5867.24, 35452.57, 19599.86, -17591.27, 0.04, 0.87, 0.46
107, 2568.37, 5020.36, 17626.99, 653.92, 5865.57, 35758.70, 19779.93, -17595.83, 0.00, 0.00, 0.00
108, 2457.66, 4918.23, 18191.99, 585.15, 5790.29, 36129.11, 20074.23, -17683.04, 0.00, 0.00, 0.00
109, 2455.29, 4919.26, 18142.20, 526.88, 5759.58, 35860.54, 19884.83, -17705.60, 0.00, 0.00, 0.00
110, 2556.26, 5017.77, 17539.59, 566.95, 5817.49, 35405.36, 19519.13, -17622.09, 0.00, 0.00, 0.00
111, 2577.67, 5041.55, 17516.79, 629.43, 5866.86, 35652.11, 19708.47, -17572.87, 0.00, 0.00, 0.00
112, 2472.97, 4949.55, 18006.41, 577.68, 5800.12, 36080.27, 20062.99, -17642.25, 0.00, 0.00, 0.00
113, 2432.38, 4913.20, 18032.34, 503.56, 5742.23, 35937.11, 19970.81, -17686.51, 0.00, 0.00, 0.00
114, 2520.56, 4991.23, 17410.40, 530.27, 5802.29, 35427.98, 19549.93, -17622.58, 0.00, 0.00, 0.00
115, 2551.99, 5022.79, 17239.56, 587.11, 5858.19, 35552.21, 19644.05, -17560.67, 0.03, 0.86, 0.46
116, 2471.07, 4942.86, 17729.87, 564.09, 5804.81, 36010.92, 20010.60, -17612.26, 0.00, 0.00, 0.00
117, 2404.67, 4876.32, 17937.68, 480.96, 5730.27, 35989.46, 20015.94, -17686.06, 0.00, 0.00, 0.00
118, 2483.70, 4959.20, 17449.13, 491.05, 5764.49, 35462.41, 19580.02, -17635.73, 0.00, 0.00, 0.00
119, 2545.51, 5018.15, 17264.55, 566.75, 5830.88, 35473.96, 19571.39, -17556.67, 0.00, 0.00, 0.00
120, 2483.23, 4959.83, 17859.09, 568.07, 5809.08, 35940.33, 19951.64, -17583.74, 0.00, 0.00, 0.00
121, 2413.70, 4892.53, 18324.92, 499.43, 5737.49, 36058.97, 20080.07, -17659.73, 0.00, 0.00, 0.00
122, 2489.96, 4967.52, 17938.41, 501.26, 5766.71, 35556.21, 19681.85, -17612.19, 0.00, 0.00, 0.00
123, 2578.68, 5056.30, 17552.67, 581.26, 5852.04, 35442.96, 19579.55, -17512.75, 0.00, 0.00, 0.00
124, 2530.06, 5011.44, 17913.22, 589.50, 5846.01, 35868.00, 19930.38, -17541.38, 0.00, 0.00, 0.00
125, 2435.02, 4920.58, 18349.80, 514.36, 5764.56, 36083.22, 20140.60, -17629.31, 0.04, 0.86, 0.47
126, 2493.83, 4981.18, 18021.07, 511.74, 5781.59, 35666.21, 19808.81, -17593.77, 0.00, 0.00, 0.00
127, 2598.99, 5086.27, 17501.55, 596.93, 5873.35, 35433.13, 19609.72, -17490.98, 0.00, 0.00, 0.00
128, 2572.26, 5063.81, 17739.69, 629.36, 5882.29, 35821.44, 19914.76, -17493.14, 0.00, 0.00, 0.00
129, 2466.56, 4961.93, 18265.15, 561.54, 5800.30, 36136.31, 20181.61, -17587.67, 0.00, 0.00, 0.00
130, 2489.96, 4982.85, 18096.78, 527.77, 5784.01, 35782.39, 19902.13, -17588.68, 0.00, 0.00, 0.00
131, 2592.00, 5080.31, 17534.47, 589.15, 5863.56, 35419.40, 19597.76, -17498.49, 0.00, 0.00, 0.00
132, 2580.93, 5064.61, 17629.02, 620.28, 5893.89, 35715.85, 19840.30, -17486.02, 0.00, 0.00, 0.00
133, 2483.12, 4971.68, 18175.70, 566.12, 5826.85, 36107.43, 20168.20, -17568.18, 0.00, 0.00, 0.00
134, 2474.03, 4968.30, 18117.41, 516.75, 5775.96, 35876.20, 19981.90, -17600.01, 0.00, 0.00, 0.00
135, 2574.79, 5064.99, 17495.13, 566.71, 5841.72, 35428.43, 19600.22, -17522.40, 0.03, 0.88, 0.47
136, 2585.85, 5072.68, 17432.35, 615.30, 5888.54, 35636.95, 19763.77, -17487.29, 0.00, 0.00, 0.00
137, 2494.48, 4986.03, 17922.01, 580.01, 5826.85, 36065.30, 20111.81, -17555.37, 0.00, 0.00, 0.00
138, 2458.89, 4951.78, 17992.62, 515.63, 5773.90, 35957.68, 20050.12, -17607.52, 0.00, 0.00, 0.00
139, 2565.26, 5055.81, 17396.34, 557.21, 5846.93, 35451.79, 19654.56, -17528.04, 0.00, 0.00, 0.00
140, 2606.24, 5095.46, 17229.48, 630.41, 5909.33, 35576.82, 19739.58, -17464.31, 0.00, 0.00, 0.00
141, 2522.46, 5012.98, 17726.12, 607.86, 5860.94, 36028.29, 20095.25, -17527.75, 0.00, 0.00, 0.00
142, 2469.60, 4959.87, 18001.98, 543.73, 5800.10, 36043.66, 20132.75, -17589.01, 0.00, 0.00, 0.00
143, 2555.09, 5042.35, 17597.06, 558.39, 5839.35, 35530.96, 19701.54, -17531.12, 0.00, 0.00, 0.00
144, 2613.21, 5094.43, 17480.63, 623.52, 5906.07, 35503.22, 19665.71, -17464.40, 0.00, 0.00, 0.00
145, 2540.39, 5022.35, 18090.99, 607.01, 5872.76, 35907.96, 19983.22, -17523.81, 0.02, 0.88, 0.47
146, 2474.99, 4961.39, 18593.77, 551.13, 5817.44, 36032.60, 20084.49, -17591.74, 0.00, 0.00, 0.00
147, 2529.08, 5009.50, 18364.62, 549.99, 5841.09, 35639.92, 19782.25, -17564.20, 0.00, 0.00, 0.00
148, 2598.90, 5073.49, 18064.63, 612.04, 5905.00, 35512.07, 19678.23, -17490.24, 0.00, 0.00, 0.00
149, 2580.11, 5057.28, 18493.43, 639.75, 5910.09, 35865.59, 19937.96, -17496.92, 0.00, 0.00, 0.00
150, 2494.95, 4967.97, 19174.49, 581.77, 5846.68, 36063.62, 20095.40, -17578.69, 0.00, 0.00, 0.00
151, 2508.18, 4966.36, 19137.32, 550.70, 5848.96, 35705.30, 19831.09, -17575.20, 0.00, 0.00, 0.00
152, 2585.58, 5025.23, 18783.02, 602.96, 5922.34, 35485.47, 19649.11, -17494.80, 0.00, 0.00, 0.00
153, 2571.26, 5004.02, 19091.12, 621.91, 5935.21, 35787.45, 19868.64, -17497.17, 0.00, 0.00, 0.00
154, 2494.28, 4930.01, 19648.63, 534.01, 5891.63, 36055.04, 20095.16, -17564.92, 0.00, 0.00, 0.00
155, 2510.75, 4911.19, 19361.21, 410.18, 5873.28, 35791.04, 19871.57, -17570.08, -0.02, 0.89, 0.47
156, 2608.54, 4986.20, 18330.73, 448.47, 5904.12, 35477.05, 19618.30, -17484.74, 0.00, 0.00, 0.00
157, 2617.86, 4996.31, 17929.32, 477.39, 5887.90, 35711.83, 19808.36, -17448.60, 0.00, 0.00, 0.00
158, 2544.70, 4916.87, 17464.33, 470.41, 5817.98, 36037.22, 20096.45, -17494.38, 0.00, 0.00, 0.00
159, 2558.67, 4914.84, 15430.33, 473.43, 5806.16, 35862.16, 20008.83, -17471.96, 0.00, 0.00, 0.00
160, 2662.74, 4979.83, 12414.56, 515.90, 5888.70, 35503.91, 19723.89, -17357.85, 0.00, 0.00, 0.00
161, 2686.81, 4947.02, 10545.02, 558.21, 5945.07, 35672.45, 19838.07, -17297.52, 0.00, 0.00, 0.00
162, 2603.11, 4783.43, 9948.29, 545.07, 5872.09, 36002.91, 20098.64, -17355.82, 0.00, 0.00, 0.00
163, 2552.19, 4564.67, 9297.74, 508.46, 5796.92, 35891.74, 20037.42, -17393.43, 0.00, 0.00, 0.00
164, 2616.58, 4354.59, 8759.76, 531.39, 5833.09, 35502.97, 19716.74, -17317.10, 0.00, 0.00, 0.00
165, 2648.66, 4020.18, 8759.51, 593.28, 5888.12, 35579.57, 19765.56, -17251.32, 0.00, 0.89, 0.47
166, 2587.30, 3518.83, 9059.72, 591.00, 5855.44, 35931.68, 20063.06, -17287.04, 0.00, 0.00, 0.00
167, 2553.73, 2986.04, 9104.80, 550.10, 5813.04, 35952.46, 20108.70, -17317.88, 0.00, 0.00, 0.00
168, 2612.65, 2561.76, 8833.72, 548.42, 5823.41, 35567.28, 19790.84, -17271.68, 0.00, 0.00, 0.00
169, 2661.20, 2208.89, 8894.29, 596.77, 5862.10, 35539.65, 19747.16, -17209.50, 0.00, 0.00, 0.00
170, 2617.48, 1750.32, 9309.14, 616.91, 5850.86, 35884.29, 20024.32, -17216.03, 0.00, 0.00, 0.00
171, 2548.52, 1244.52, 9512.32, 575.98, 5797.82, 35985.50, 20140.26, -17263.39, 0.00, 0.00, 0.00
172, 2588.42, 952.99, 9485.43, 562.17, 5796.88, 35607.07, 19846.13, -17236.66, 0.00, 0.00, 0.00
173, 2652.12, 781.28, 9530.98, 615.70, 5851.53, 35471.86, 19718.55, -17163.84, 0.00, 0.00, 0.00
174, 2626.73, 577.10, 9791.20, 641.88, 5862.26, 35796.23, 19981.81, -17152.66, 0.00, 0.00, 0.00
175, 2535.81, 330.05, 10052.58, 573.19, 5791.31, 35984.54, 20165.74, -17223.83, 0.02, 0.89, 0.47
176, 2557.15, 197.77, 10103.79, 540.60, 5777.34, 35661.34, 19939.79, -17241.51, 0.00, 0.00, 0.00
177, 2622.49, 124.01, 10209.43, 576.88, 5832.55, 35434.20, 19749.17, -17176.13, 0.00, 0.00, 0.00
178, 2615.33, 13.14, 10483.62, 623.81, 5864.96, 35729.08, 19979.82, -17074.54, 0.00, 0.00, 0.00
179, 2545.84, -167.84, 10693.50, 595.63, 5821.91, 36006.74, 20212.37, -17054.40, 0.00, 0.00, 0.00
180, 2539.90, -319.36, 10806.35, 544.69, 5802.04, 35751.05, 20057.87, -17064.28, 0.00, 0.00, 0.00
181, 2607.33, -374.17, 10897.62, 576.45, 5866.30, 35442.51, 19826.42, -16981.85, 0.00, 0.00, 0.00
182, 2614.13, -452.94, 11122.65, 622.74, 5914.94, 35653.71, 20019.74, -16921.88, 0.00, 0.00, 0.00
183, 2531.33, -579.98, 11587.50, 590.69, 5854.95, 35966.73, 20320.10, -16963.45, 0.00, 0.00, 0.00
184, 2492.15, -652.58, 12437.63, 519.88, 5792.92, 35801.95, 20248.24, -16968.62, 0.00, 0.00, 0.00
185, 2574.50, -600.46, 13075.08, 541.05, 5846.41, 35443.72, 19992.16, -16845.88, 0.02, 0.87, 0.48
186, 2611.00, -594.98, 13383.06, 596.21, 5890.67, 35591.42, 20147.64, -16757.64, 0.00, 0.00, 0.00
187, 2552.26, -697.80, 13393.10, 583.02, 5860.20, 35939.66, 20541.14, -16771.03, 0.00, 0.00, 0.00
188, 2512.13, -785.31, 13333.58, 522.94, 5811.74, 35877.99, 20608.15, -16785.31, 0.00, 0.00, 0.00
189, 2573.94, -763.47, 13149.33, 537.83, 5843.48, 35487.93, 20310.72, -16710.97, 0.00, 0.00, 0.00
190, 2622.19, -728.24, 13004.13, 600.95, 5903.01, 35535.45, 20332.06, -16626.84, 0.00, 0.00, 0.00
191, 2577.76, -761.23, 13086.19, 602.85, 5889.98, 35895.85, 20626.86, -16638.75, 0.00, 0.00, 0.00
192, 2517.57, -825.49, 13061.87, 534.88, 5827.88, 35931.90, 20704.04, -16685.31, 0.00, 0.00, 0.00
193, 2578.41, -745.70, 12925.75, 537.72, 5851.08, 35540.86, 20438.43, -16626.77, 0.00, 0.00, 0.00
194, 2638.24, -644.65, 12842.89, 603.18, 5906.60, 35495.26, 20413.42, -16547.17, 0.03, 0.89, 0.47
195, 2586.19, -670.46, 12828.20, 606.43, 5889.66, 35837.64, 20712.45, -16571.85, 0.00, 0.00, 0.00
196, 2522.48, -717.33, 12739.85, 551.37, 5832.82, 35968.27, 20862.11, -16627.60, 0.00, 0.00, 0.00
197, 2560.53, -677.73, 12584.88, 534.36, 5833.89, 35607.09, 20554.24, -16602.43, 0.00, 0.00, 0.00
198, 2628.77, -603.90, 12547.46, 597.46, 5894.24, 35459.39, 20424.22, -16516.62, 0.00, 0.00, 0.00
199, 2602.93, -585.55, 12530.81, 631.46, 5903.23, 35783.24, 20737.25, -16511.17, 0.00, 0.00, 0.00
200, 2523.85, -624.31, 12407.25, 581.91, 5851.31, 35985.86, 20989.99, -16580.08, 0.00, 0.00, 0.00
201, 2534.80, -551.24, 12325.18, 559.11, 5833.89, 35674.16, 20777.13, -16588.79, 0.00, 0.00, 0.00
202, 2614.89, -428.46, 12248.62, 615.52, 5888.66, 35439.70, 20557.08, -16508.48, 0.00, 0.00, 0.00
203, 2613.23, -416.93, 12185.10, 657.61, 5914.00, 35719.41, 20800.26, -16494.74, 0.00, 0.00, 0.00
204, 2532.12, -512.44, 11984.76, 595.27, 5849.67, 35981.43, 21119.29, -16567.27, 0.04, 0.88, 0.46
205, 2524.92, -498.42, 11730.78, 522.67, 5799.05, 35758.61, 21046.02, -16554.28, 0.00, 0.00, 0.00
206, 2597.00, -371.93, 11660.41, 553.47, 5817.40, 35473.69, 20803.13, -16427.88, 0.00, 0.00, 0.00
207, 2620.09, -301.73, 11630.95, 622.32, 5835.68, 35673.02, 20926.35, -16334.25, 0.00, 0.00, 0.00
208, 2549.75, -364.47, 11404.64, 578.53, 5777.77, 35965.34, 21224.08, -16352.45, 0.00, 0.00, 0.00
209, 2531.89, -442.86, 11184.23, 538.99, 5739.88, 35859.15, 21193.25, -16343.37, 0.00, 0.00, 0.00
210, 2607.11, -456.51, 11125.83, 564.56, 5776.83, 35507.29, 20912.98, -16283.63, 0.00, 0.00, 0.00
211, 2646.22, -504.08, 11060.96, 614.00, 5829.76, 35618.66, 21082.97, -16208.81, 0.00, 0.00, 0.00
212, 2576.51, -644.33, 11021.33, 596.43, 5795.05, 35960.69, 21456.51, -16206.96, 0.00, 0.00, 0.00
213, 2539.72, -773.68, 10996.97, 546.81, 5754.93, 35932.82, 21464.29, -16237.56, 0.00, 0.00, 0.00
214, 2597.70, -837.99, 10999.56, 547.08, 5795.14, 35542.49, 21064.62, -16177.95, 0.03, 0.89, 0.45
215, 2638.22, -892.21, 11029.42, 596.32, 5844.69, 35559.59, 21065.36, -16103.13, 0.00, 0.00, 0.00
216, 2578.30, -1048.52, 10950.88, 578.82, 5811.21, 35906.33, 21474.08, -16127.25, 0.00, 0.00, 0.00
217, 2519.96, -1213.41, 10829.60, 518.25, 5755.42, 35978.48, 21691.99, -16163.69, 0.00, 0.00, 0.00
218, 2562.31, -1255.70, 10838.54, 508.46, 5770.33, 35579.68, 21401.26, -16119.65, 0.00, 0.00, 0.00
219, 2620.07, -1275.66, 10864.49, 566.04, 5839.46, 35505.34, 21315.63, -16022.62, 0.00, 0.00, 0.00
220, 2585.54, -1397.83, 10797.28, 578.02, 5827.12, 35853.38, 21633.45, -16018.35, 0.00, 0.00, 0.00
221, 2525.10, -1535.63, 10606.75, 534.68, 5772.96, 36018.25, 21876.72, -16066.17, 0.00, 0.00, 0.00
222, 2545.33, -1573.83, 10434.96, 506.58, 5766.95, 35650.14, 21626.36, -16039.77, 0.00, 0.00, 0.00
223, 2615.02, -1560.02, 10361.80, 567.33, 5839.30, 35475.82, 21505.26, -15932.32, 0.00, 0.00, 0.00
224, 2597.79, -1648.91, 10297.85, 600.26, 5860.43, 35797.79, 21849.86, -15898.04, 0.03, 0.89, 0.46
225, 2522.26, -1787.56, 10127.75, 549.72, 5803.50, 36041.14, 22164.95, -15928.81, 0.00, 0.00, 0.00
226, 2525.72, -1821.87, 10031.31, 513.51, 5780.56, 35740.68, 21938.77, -15901.12, 0.00, 0.00, 0.00
227, 2600.74, -1798.53, 9940.71, 561.45, 5846.61, 35462.14, 21644.49, -15802.33, 0.00, 0.00, 0.00
228, 2586.79, -1861.03, 9851.55, 585.84, 5870.66, 35723.07, 21894.94, -15772.78, 0.00, 0.00, 0.00
229, 2503.19, -1980.34, 9731.12, 542.43, 5819.14, 36029.67, 22290.41, -15807.47, 0.00, 0.00, 0.00
230, 2498.50, -2042.68, 9645.13, 508.03, 5797.82, 35811.63, 22193.22, -15790.52, 0.00, 0.00, 0.00
231, 2577.98, -2073.33, 9696.43, 546.19, 5856.74, 35462.61, 21876.30, -15685.69, 0.00, 0.00, 0.00
232, 2594.46, -2153.77, 9682.06, 601.13, 5906.05, 35664.38, 22078.25, -15626.28, 0.00, 0.00, 0.00
233, 2519.49, -2313.90, 9485.72, 568.34, 5872.83, 36023.03, 22538.85, -15655.12, 0.00, 0.00, 0.00
234, 2484.04, -2440.25, 9278.41, 514.27, 5822.47, 35900.07, 22583.26, -15676.31, 0.03, 0.88, 0.46
235, 2551.23, -2458.80, 9331.43, 535.97, 5861.41, 35478.77, 22235.92, -15643.18, 0.00, 0.00, 0.00
236, 2598.52, -2499.75, 9368.26, 609.96, 5907.50, 35594.23, 22353.93, -15529.05, 0.00, 0.00, 0.00
237, 2534.53, -2655.19, 9332.88, 603.59, 5871.27, 35990.66, 22830.36, -15465.37, 0.00, 0.00, 0.00
238, 2485.09, -2804.38, 9298.01, 546.16, 5814.20, 35974.53, 22989.84, -15531.15, 0.00, 0.00, 0.00
239, 2550.54, -2837.42, 9371.62, 555.75, 5844.00, 35551.36, 22646.74, -15452.92, 0.00, 0.00, 0.00
240, 2610.77, -2885.10, 9406.49, 619.34, 5911.37, 35572.22, 22649.54, -15365.50, 0.00, 0.00, 0.00
241, 2564.44, -2976.36, 9317.41, 614.81, 5893.33, 35957.12, 23118.43, -15384.86, 0.00, 0.00, 0.00
242, 2508.16, -3048.49, 9230.51, 557.12, 5835.21, 36048.24, 23381.89, -15417.50, 0.00, 0.00, 0.00
243, 2556.41, -3032.98, 9201.90, 553.74, 5847.84, 35633.62, 23049.23, -15368.88, 0.00, 0.00, 0.00
244, 2622.02, -3007.23, 9099.28, 619.41, 5912.17, 35524.09, 22910.52, -15271.20, 0.03, 0.86, 0.46
245, 2587.30, -3081.41, 8907.30, 629.67, 5904.84, 35883.09, 23328.54, -15270.82, 0.00, 0.00, 0.00
246, 2523.69, -3180.59, 8799.08, 579.58, 5858.48, 36089.71, 23709.03, -15308.82, 0.00, 0.00, 0.00
247, 2551.32, -3193.53, 8820.20, 554.86, 5851.33, 35722.22, 23430.42, -15274.71, 0.00, 0.00, 0.00
248, 2626.53, -3159.82, 8918.70, 606.65, 5910.49, 35504.20, 23163.47, -15181.19, 0.00, 0.00, 0.00
249, 2620.43, -3251.49, 8870.18, 636.96, 5929.45, 35833.42, 23499.46, -15155.17, 0.00, 0.00, 0.00
250, 2537.88, -3339.10, 8671.38, 573.81, 5859.58, 36108.82, 23903.13, -15220.11, 0.00, 0.00, 0.00
251, 2555.23, -3315.19, 8572.90, 539.35, 5843.24, 35805.77, 23721.17, -15202.74, 0.00, 0.00, 0.00
252, 2641.28, -3237.45, 8510.94, 594.31, 5900.88, 35489.41, 23361.42, -15105.40, 0.00, 0.00, 0.00
253, 2627.05, -3290.09, 8485.12, 634.54, 5915.79, 35741.91, 23598.72, -15081.88, 0.00, 0.00, 0.00
254, 2543.43, -3404.08, 8446.63, 590.78, 5854.84, 36076.74, 24067.69, -15134.59, 0.03, 0.87, 0.46
255, 2537.26, -3431.37, 8401.28, 531.59, 5814.38, 35876.61, 24011.92, -15133.49, 0.00, 0.00, 0.00
0, 2625.64, -3340.27, 8411.48, 556.98, 5870.08, 35494.73, 23604.54, -15044.78, 0.00, 0.00, 0.00
1, 2647.65, -3295.25, 8469.92, 597.10, 5917.49, 35680.82, 23739.43, -14998.69, 0.00, 0.00, 0.00
2, 2576.26, -3334.25, 8434.74, 565.07, 5870.77, 36057.34, 24197.86, -15044.56, 0.00, 0.00, 0.00
3, 2555.43, -3306.58, 8368.69, 514.18, 5824.95, 35972.92, 24247.51, -15066.19, 0.00, 0.00, 0.00
4, 2626.80, -3166.55, 8349.85, 527.99, 5863.26, 35553.55, 23797.54, -14996.99, 0.00, 0.00, 0.00
5, 2655.57, -3069.77, 8332.60, 566.08, 5921.27, 35634.65, 23807.63, -14947.59, 0.00, 0.00, 0.00
6, 2592.65, -3048.67, 8247.97, 531.59, 5874.82, 36026.29, 24245.29, -14992.77, 0.00, 0.00, 0.00
7, 2532.83, -3014.16, 8131.81, 449.58, 5802.49, 36039.39, 24373.82, -15048.62, 0.00, 0.00, 0.00
8, 2591.42, -2841.78, 8143.48, 444.82, 5834.21, 35607.18, 23913.33, -14993.37, 0.02, 0.87, 0.46
9, 2634.33, -2687.51, 8188.72, 489.46, 5894.65, 35584.27, 23765.09, -14934.99, 0.00, 0.00, 0.00
10, 2567.52, -2630.04, 8148.33, 483.83, 5883.05, 35983.36, 24156.49, -14955.64, 0.00, 0.00, 0.00
11, 2483.48, -2565.00, 8045.09, 405.21, 5811.79, 36104.17, 24386.04, -15015.77, 0.00, 0.00, 0.00
12, 2528.43, -2354.24, 8014.28, 389.37, 5813.51, 35680.65, 23993.39, -14985.48, 0.00, 0.00, 0.00
13, 2598.30, -2102.63, 8055.10, 456.98, 5880.01, 35548.88, 23755.52, -14911.38, 0.00, 0.00, 0.00
14, 2554.78, -1969.88, 8036.48, 467.17, 5875.36, 35923.70, 24103.61, -14929.78, 0.00, 0.00, 0.00
15, 2453.62, -1903.18, 7928.45, 376.78, 5798.49, 36131.37, 24429.85, -14992.43, 0.00, 0.00, 0.00
16, 2474.65, -1675.15, 7913.28, 341.56, 5790.08, 35772.13, 24131.79, -14965.86, 0.00, 0.00, 0.00
17, 2536.39, -1340.93, 7935.00, 382.30, 5840.15, 35538.02, 23811.60, -14904.88, 0.00, 0.00, 0.00
18, 2506.73, -1056.32, 7896.78, 386.84, 5846.46, 35840.64, 24093.57, -14921.78, 0.01, 0.85, 0.47
19, 2422.62, -831.95, 7806.88, 316.95, 5778.33, 36127.48, 24512.02, -15005.55, 0.00, 0.00, 0.00
20, 2415.82, -583.92, 7744.57, 259.57, 5745.27, 35847.52, 24313.04, -15017.26, 0.00, 0.00, 0.00
21, 2492.13, -265.38, 7808.67, 284.52, 5798.42, 35516.90, 23893.90, -14945.58, 0.00, 0.00, 0.00
22, 2492.53, 6.08, 7861.18, 315.90, 5820.19, 35761.63, 24060.65, -14935.05, 0.00, 0.00, 0.00
23, 2411.51, 182.97, 7777.98, 263.86, 5753.52, 36096.50, 24469.41, -15018.85, 0.00, 0.00, 0.00
24, 2388.15, 395.36, 7715.04, 199.06, 5705.01, 35896.88, 24371.29, -15055.60, 0.00, 0.00, 0.00
25, 2472.01, 714.90, 7766.47, 229.53, 5753.32, 35508.94, 23890.77, -14985.75, 0.00, 0.00, 0.00
26, 2509.18, 991.37, 7823.78, 299.69, 5805.73, 35681.45, 23941.94, -14941.40, 0.00, 0.00, 0.00
27, 2430.06, 1216.34, 7765.71, 275.55, 5757.16, 36074.78, 24370.35, -15003.90, 0.02, 0.86, 0.48
28, 2378.02, 1514.29, 7713.50, 197.10, 5690.73, 35992.77, 24396.46, -15065.10, 0.00, 0.00, 0.00
29, 2464.82, 1862.03, 7860.01, 215.45, 5737.16, 35562.21, 23905.28, -15000.81, 0.00, 0.00, 0.00
30, 2519.27, 2126.66, 8051.95, 291.65, 5792.36, 35642.14, 23848.69, -14941.85, 0.00, 0.00, 0.00
31, 2480.15, 2222.52, 8167.28, 321.08, 5760.33, 36055.87, 24267.20, -14981.90, 0.00, 0.00, 0.00
32, 2434.89, 2273.73, 8224.86, 271.80, 5691.27, 36092.59, 24409.82, -15044.76, 0.00, 0.00, 0.00
33, 2492.35, 2407.98, 8314.76, 254.12, 5704.97, 35640.82, 23935.86, -15011.90, 0.00, 0.00, 0.00
34, 2559.48, 2540.34, 8471.15, 312.01, 5773.57, 35597.43, 23764.98, -14949.23, 0.00, 0.00, 0.00
35, 2524.61, 2563.05, 8619.37, 326.76, 5741.13, 35997.02, 24166.95, -14994.13, 0.00, 0.00, 0.00
36, 2455.65, 2559.92, 8661.97, 270.08, 5654.39, 36136.29, 24451.76, -15068.90, 0.00, 0.00, 0.00
37, 2500.58, 2694.01, 8697.80, 249.85, 5660.11, 35719.63, 24092.23, -15042.92, 0.03, 0.88, 0.47
38, 2581.54, 2881.07, 8794.72, 316.34, 5729.74, 35566.45, 23836.21, -14971.56, 0.00, 0.00, 0.00
39, 2550.02, 2948.89, 8852.12, 341.49, 5723.23, 35919.16, 24160.74, -14995.79, 0.00, 0.00, 0.00
40, 2480.33, 2981.39, 8837.46, 291.80, 5659.28, 36157.45, 24501.71, -15070.57, 0.00, 0.00, 0.00
41, 2511.84, 3099.09, 8838.26, 254.18, 5643.95, 35804.81, 24195.88, -15084.61, 0.00, 0.00, 0.00
42, 2596.22, 3256.87, 8931.40, 305.97, 5703.92, 35543.50, 23805.79, -14992.59, 0.00, 0.00, 0.00
43, 2584.04, 3310.36, 9015.93, 339.25, 5710.58, 35861.50, 24048.31, -14977.37, 0.00, 0.00, 0.00
44, 2505.50, 3289.86, 9038.46, 288.02, 5641.07, 36167.18, 24434.79, -15067.44, 0.00, 0.00, 0.00
45, 2506.39, 3342.59, 9017.95, 227.25, 5609.42, 35887.76, 24209.15, -15098.54, 0.00, 0.00, 0.00
46, 2580.84, 3467.67, 9068.73, 245.53, 5657.43, 35517.93, 23716.72, -15021.33, 0.00, 0.00, 0.00
47, 2583.91, 3518.90, 9143.94, 304.56, 5674.68, 35750.36, 23835.05, -15007.99, 0.04, 0.89, 0.47
48, 2506.73, 3491.36, 9129.88, 277.50, 5616.43, 36109.93, 24243.71, -15098.47, 0.00, 0.00, 0.00
49, 2488.55, 3515.01, 9080.60, 223.99, 5570.32, 35942.72, 24178.19, -15140.22, 0.00, 0.00, 0.00
50, 2567.75, 3632.92, 9116.02, 249.69, 5638.03, 35525.55, 23711.51, -15066.82, 0.00, 0.00, 0.00
51, 2604.22, 3704.67, 9200.51, 322.58, 5669.54, 35686.86, 23772.78, -15021.76, 0.00, 0.00, 0.00
52, 2527.49, 3662.80, 9220.85, 304.41, 5605.42, 36080.23, 24215.25, -15098.22, 0.00, 0.00, 0.00
53, 2495.95, 3663.43, 9212.50, 247.28, 5558.99, 36026.81, 24286.00, -15137.96, 0.00, 0.00, 0.00
54, 2579.37, 3772.95, 9255.48, 261.65, 5599.58, 35581.34, 23810.82, -15076.18, 0.00, 0.00, 0.00
55, 2621.99, 3846.15, 9317.41, 322.89, 5647.97, 35624.25, 23754.29, -15034.99, 0.00, 0.00, 0.00
56, 2574.05, 3879.50, 9343.16, 325.08, 5614.85, 36028.53, 24168.58, -15088.08, 0.00, 0.00, 0.00
57, 2518.62, 3883.19, 9326.56, 262.36, 5544.37, 36069.21, 24337.74, -15168.56, 0.04, 0.89, 0.45
58, 2581.96, 3976.38, 9355.28, 260.15, 5571.17, 35621.77, 23888.43, -15106.52, 0.00, 0.00, 0.00
59, 2658.00, 4089.12, 9450.97, 341.51, 5650.36, 35579.91, 23701.63, -15027.03, 0.00, 0.00, 0.00
60, 2609.32, 4083.46, 9482.46, 356.60, 5627.57, 35976.88, 24062.37, -15074.98, 0.00, 0.00, 0.00
61, 2515.17, 4018.78, 9404.36, 273.54, 5537.11, 36115.19, 24319.84, -15188.50, 0.00, 0.00, 0.00
62, 2549.69, 4078.93, 9377.58, 245.20, 5536.55, 35693.43, 23905.48, -15154.68, 0.00, 0.00, 0.00
63, 2646.94, 4195.82, 9456.71, 335.70, 5643.90, 35535.41, 23616.99, -15055.73, 0.00, 0.00, 0.00
64, 2619.00, 4186.95, 9497.55, 376.49, 5654.81, 35917.46, 23934.63, -15063.69, 0.00, 0.00, 0.00
65, 2526.51, 4116.39, 9450.38, 319.43, 5583.71, 36192.41, 24289.97, -15148.94, 0.00, 0.00, 0.00
66, 2522.60, 4129.08, 9407.36, 259.95, 5557.27, 35790.15, 23971.17, -15171.22, 0.00, 0.00, 0.00
67, 2603.44, 4221.82, 9472.94, 312.88, 5624.82, 35482.63, 23538.69, -15084.68, 0.02, 0.88, 0.44
68, 2583.55, 4217.26, 9537.18, 363.84, 5650.16, 35823.50, 23789.14, -15070.93, 0.00, 0.00, 0.00
69, 2483.30, 4138.36, 9508.52, 330.22, 5585.77, 36174.69, 24236.58, -15154.26, 0.00, 0.00, 0.00
70, 2457.55, 4129.89, 9460.11, 271.17, 5536.64, 35891.38, 24047.10, -15183.47, 0.00, 0.00, 0.00
71, 2544.81, 4223.16, 9545.63, 325.24, 5626.25, 35499.33, 23568.33, -15092.84, 0.00, 0.00, 0.00
72, 2561.85, 4249.20, 9632.71, 400.50, 5681.48, 35767.77, 23737.87, -15045.88, 0.00, 0.00, 0.00
73, 2459.09, 4159.59, 9621.33, 377.95, 5634.79, 36167.74, 24193.88, -15100.70, 0.00, 0.00, 0.00
74, 2417.05, 4113.08, 9580.02, 325.28, 5589.21, 35998.09, 24159.73, -15141.27, 0.00, 0.00, 0.00
75, 2494.88, 4186.48, 9626.49, 353.36, 5642.34, 35550.92, 23667.05, -15068.41, 0.00, 0.00, 0.00
76, 2514.48, 4207.60, 9695.78, 413.24, 5697.06, 35693.28, 23699.73, -15045.52, 0.00, 0.00, 0.00
77, 2447.09, 4149.36, 9711.74, 419.30, 5664.27, 36113.22, 24150.34, -15109.64, 0.01, 0.90, 0.44
78, 2402.10, 4111.11, 9685.88, 364.69, 5602.80, 36081.17, 24227.84, -15130.95, 0.00, 0.00, 0.00
79, 2490.81, 4209.50, 9712.59, 377.05, 5652.62, 35624.95, 23731.61, -15057.41, 0.00, 0.00, 0.00
80, 2534.80, 4270.26, 9768.34, 438.14, 5704.46, 35647.43, 23622.26, -15025.00, 0.00, 0.00, 0.00
81, 2471.01, 4221.93, 9786.02, 449.11, 5694.82, 36082.62, 24057.90, -15068.50, 0.00, 0.00, 0.00
82, 2419.44, 4178.99, 9750.48, 396.05, 5627.25, 36154.10, 24236.82, -15135.75, 0.00, 0.00, 0.00
83, 2488.96, 4248.49, 9761.14, 380.23, 5632.73, 35672.38, 23757.58, -15110.38, 0.00, 0.00, 0.00
84, 2579.53, 4335.28, 9838.30, 465.25, 5720.84, 35595.06, 23562.29, -15021.24, 0.00, 0.00, 0.00
85, 2543.36, 4324.93, 9865.19, 498.98, 5713.87, 36004.25, 23947.57, -15041.96, 0.00, 0.00, 0.00
86, 2470.00, 4279.35, 9817.00, 452.09, 5642.43, 36189.21, 24237.94, -15123.61, 0.00, 0.00, 0.00
87, 2508.56, 4326.25, 9800.30, 410.33, 5636.04, 35758.97, 23845.31, -15118.85, 0.01, 0.91, 0.42
88, 2598.73, 4430.63, 9865.90, 472.45, 5706.60, 35546.56, 23514.19, -15029.07, 0.00, 0.00, 0.00
89, 2577.87, 4403.00, 9881.68, 509.02, 5707.90, 35915.34, 23824.86, -15044.33, 0.00, 0.00, 0.00
90, 2496.80, 4342.16, 9812.37, 457.52, 5630.09, 36196.28, 24188.23, -15142.93, 0.00, 0.00, 0.00
91, 2509.25, 4372.14, 9740.80, 417.15, 5605.33, 35849.98, 23902.96, -15156.76, 0.00, 0.00, 0.00
92, 2595.06, 4455.95, 9738.83, 474.06, 5659.77, 35536.95, 23476.24, -15088.19, 0.00, 0.00, 0.00
93, 2596.80, 4477.84, 9759.35, 534.85, 5684.41, 35836.46, 23703.49, -15070.75, 0.00, 0.00, 0.00
94, 2526.53, 4432.24, 9710.47, 510.45, 5637.71, 36175.96, 24123.79, -15131.55, 0.00, 0.00, 0.00
95, 2526.84, 4459.87, 9630.09, 454.81, 5599.04, 35935.17, 23965.94, -15160.25, 0.00, 0.00, 0.00
96, 2621.17, 4559.67, 9635.81, 498.09, 5656.73, 35554.94, 23508.63, -15077.66, 0.00, 0.00, 0.00
97, 2647.03, 4590.18, 9676.43, 563.02, 5702.33, 35776.65, 23634.00, -15049.18, 0.01, 0.90, 0.40
98, 2577.51, 4530.74, 9650.16, 555.35, 5657.54, 36170.33, 24064.38, -15117.07, 0.00, 0.00, 0.00
99, 2547.88, 4512.21, 9596.65, 489.97, 5605.21, 36034.16, 24047.28, -15165.64, 0.00, 0.00, 0.00
100, 2631.78, 4602.54, 9615.45, 501.98, 5648.08, 35583.39, 23548.14, -15091.38, 0.00, 0.00, 0.00
101, 2665.76, 4640.87, 9675.20, 568.87, 5693.17, 35695.27, 23535.13, -15059.17, 0.00, 0.00, 0.00
102, 2611.56, 4596.50, 9680.54, 573.46, 5676.20, 36116.98, 23985.16, -15103.72, 0.00, 0.00, 0.00
103, 2575.35, 4570.10, 9619.65, 527.01, 5635.72, 36115.81, 24080.56, -15146.86, 0.00, 0.00, 0.00
104, 2660.13, 4661.72, 9615.30, 549.50, 5669.79, 35660.96, 23611.00, -15091.92, 0.00, 0.00, 0.00
105, 2718.08, 4723.46, 9657.56, 616.46, 5720.19, 35676.02, 23496.73, -15031.66, 0.00, 0.00, 0.00
106, 2658.67, 4676.01, 9649.65, 637.65, 5695.09, 36092.05, 23891.76, -15074.37, 0.00, 0.00, 0.00
107, 2600.20, 4629.67, 9585.34, 592.01, 5641.49, 36193.82, 24105.75, -15132.00, 0.01, 0.91, 0.39
108, 2660.04, 4691.36, 9553.11, 576.81, 5664.92, 35749.67, 23692.98, -15086.02, 0.00, 0.00, 0.00
109, 2725.53, 4761.52, 9581.25, 649.18, 5729.49, 35645.64, 23482.14, -15012.26, 0.00, 0.00, 0.00
110, 2696.63, 4750.30, 9598.38, 682.78, 5722.40, 36040.06, 23844.19, -15042.10, 0.00, 0.00, 0.00
111, 2622.66, 4696.08, 9527.30, 634.19, 5652.44, 36242.64, 24134.92, -15121.25, 0.00, 0.00, 0.00
112, 2655.01, 4711.39, 9471.01, 607.61, 5643.82, 35834.83, 23776.04, -15110.70, 0.00, 0.00, 0.00
113, 2731.79, 4780.61, 9492.96, 651.82, 5710.71, 35607.96, 23443.16, -15038.41, 0.00, 0.00, 0.00
114, 2702.30, 4762.64, 9494.53, 678.44, 5709.46, 35947.39, 23724.95, -15064.00, 0.00, 0.00, 0.00
115, 2611.29, 4690.71, 9444.62, 643.01, 5635.86, 36231.89, 24080.07, -15147.89, 0.00, 0.00, 0.00
116, 2623.40, 4702.67, 9394.95, 598.00, 5620.15, 35913.20, 23813.03, -15147.58, 0.02, 0.93, 0.38
117, 2710.35, 4791.99, 9413.19, 644.22, 5679.94, 35597.25, 23370.60, -15057.83, 0.00, 0.00, 0.00
118, 2714.13, 4805.31, 9445.98, 701.26, 5703.32, 35880.32, 23541.33, -15046.93, 0.00, 0.00, 0.00
119, 2639.56, 4741.97, 9434.47, 675.38, 5650.95, 36237.05, 23913.21, -15118.07, 0.00, 0.00, 0.00
120, 2608.96, 4718.21, 9402.57, 600.88, 5592.38, 36004.61, 23736.05, -15168.88, 0.00, 0.00, 0.00
121, 2691.82, 4799.32, 9440.01, 625.98, 5641.67, 35584.18, 23244.58, -15107.59, 0.00, 0.00, 0.00
122, 2708.32, 4822.84, 9492.20, 670.93, 5679.89, 35787.13, 23313.18, -15077.50, 0.00, 0.00, 0.00
123, 2628.41, 4766.71, 9491.85, 655.38, 5624.77, 36179.67, 23688.91, -15157.28, 0.00, 0.00, 0.00
124, 2587.62, 4719.37, 9438.14, 599.50, 5566.68, 36070.20, 23635.05, -15209.15, 0.00, 0.00, 0.00
125, 2660.98, 4778.65, 9433.62, 600.84, 5609.68, 35597.86, 23120.17, -15149.39, 0.00, 0.00, 0.00
126, 2693.59, 4815.86, 9501.15, 665.32, 5661.05, 35692.20, 23098.72, -15109.24, 0.02, 0.95, 0.36
127, 2613.46, 4750.62, 9505.82, 656.67, 5617.10, 36115.93, 23491.62, -15168.59, 0.00, 0.00, 0.00
128, 2548.05, 4693.78, 9433.31, 577.88, 5537.49, 36117.69, 23557.93, -15249.61, 0.00, 0.00, 0.00
129, 2626.20, 4771.83, 9429.04, 582.75, 5565.72, 35643.54, 23067.87, -15198.34, 0.00, 0.00, 0.00
130, 2687.10, 4833.16, 9507.56, 659.89, 5635.68, 35640.14, 22939.35, -15128.38, 0.00, 0.00, 0.00
131, 2631.65, 4791.72, 9553.69, 671.33, 5612.32, 36058.86, 23313.85, -15174.69, 0.00, 0.00, 0.00
132, 2557.62, 4721.67, 9516.86, 599.43, 5538.05, 36162.39, 23507.71, -15253.77, 0.00, 0.00, 0.00
133, 2598.81, 4756.43, 9518.24, 562.24, 5545.94, 35693.03, 23073.32, -15227.44, 0.00, 0.00, 0.00
134, 2663.64, 4822.34, 9591.83, 630.88, 5619.63, 35563.10, 22846.46, -15152.38, 0.00, 0.00, 0.00
135, 2620.83, 4787.54, 9629.04, 652.96, 5588.41, 35958.03, 23162.91, -15201.76, 0.00, 0.00, 0.00
136, 2551.43, 4730.43, 9601.28, 609.80, 5539.25, 36180.19, 23432.09, -15267.56, 0.04, 0.95, 0.35
137, 2592.27, 4768.79, 9581.14, 582.04, 5531.36, 35794.86, 23094.25, -15206.54, 0.00, 0.00, 0.00
138, 2672.17, 4841.32, 9618.40, 630.99, 5585.34, 35557.02, 22763.69, -15133.72, 0.00, 0.00, 0.00
139, 2651.83, 4839.67, 9656.76, 678.11, 5596.14, 35903.00, 23027.62, -15154.73, 0.00, 0.00, 0.00
140, 2576.84, 4773.19, 9634.96, 644.87, 5535.30, 36219.14, 23375.77, -15231.84, 0.00, 0.00, 0.00
141, 2587.66, 4780.86, 9578.86, 596.32, 5502.69, 35900.32, 23127.48, -15247.69, 0.00, 0.00, 0.00
142, 2678.34, 4866.27, 9606.76, 644.47, 5569.74, 35546.05, 22727.54, -15163.62, 0.00, 0.00, 0.00
143, 2684.80, 4878.07, 9666.62, 706.40, 5602.17, 35834.34, 22930.74, -15143.51, 0.00, 0.00, 0.00
144, 2590.70, 4778.80, 9651.53, 678.11, 5536.17, 36199.21, 23318.99, -15240.38, 0.00, 0.00, 0.00
145, 2580.42, 4771.11, 9609.62, 622.12, 5497.50, 35988.45, 23203.88, -15260.23, 0.00, 0.00, 0.00
146, 2673.78, 4867.27, 9650.43, 651.49, 5563.53, 35571.48, 22754.68, -15173.26, 0.06, 0.93, 0.33
147, 2700.07, 4898.99, 9735.10, 727.08, 5613.24, 35755.28, 22864.27, -15145.45, 0.00, 0.00, 0.00
148, 2636.23, 4841.54, 9739.97, 717.51, 5581.10, 36168.45, 23277.35, -15203.46, 0.00, 0.00, 0.00
149, 2605.30, 4816.82, 9677.10, 660.96, 5517.39, 36088.39, 23268.86, -15247.02, 0.00, 0.00, 0.00
150, 2685.14, 4889.40, 9684.76, 679.34, 5552.87, 35629.93, 22795.11, -15179.58, 0.00, 0.00, 0.00
151, 2718.75, 4922.57, 9736.96, 730.30, 5600.36, 35702.38, 22756.67, -15134.68, 0.00, 0.00, 0.00
152, 2666.18, 4879.88, 9750.75, 750.62, 5583.02, 36133.36, 23138.55, -15183.56, 0.00, 0.00, 0.00
153, 2611.02, 4827.89, 9689.84, 678.91, 5519.81, 36168.65, 23237.50, -15250.53, 0.00, 0.00, 0.00
154, 2664.57, 4885.93, 9679.31, 655.20, 5529.33, 35681.56, 22761.50, -15207.81, 0.00, 0.00, 0.00
155, 2732.66, 4959.83, 9750.08, 744.51, 5594.15, 35661.49, 22619.25, -15132.73, 0.00, 0.00, 0.00
156, 2692.74, 4926.66, 9772.85, 759.65, 5583.73, 36083.49, 22973.61, -15171.85, 0.06, 0.94, 0.33
157, 2617.52, 4861.35, 9724.86, 700.79, 5516.01, 36222.39, 23170.18, -15252.29, 0.00, 0.00, 0.00
158, 2653.00, 4883.97, 9686.49, 662.46, 5519.67, 35763.59, 22779.44, -15233.94, 0.00, 0.00, 0.00
159, 2719.63, 4950.31, 9720.46, 712.04, 5583.33, 35605.95, 22548.71, -15163.33, 0.00, 0.00, 0.00
160, 2688.15, 4929.92, 9760.60, 748.09, 5581.86, 35993.88, 22886.78, -15185.37, 0.00, 0.00, 0.00
161, 2619.40, 4874.13, 9728.82, 699.70, 5525.66, 36236.65, 23192.15, -15261.06, 0.00, 0.00, 0.00
162, 2647.97, 4903.59, 9694.04, 667.45, 5521.89, 35857.96, 22876.41, -15246.42, 0.00, 0.00, 0.00
163, 2724.92, 4977.13, 9738.90, 722.61, 5592.88, 35600.20, 22554.88, -15162.37, 0.00, 0.00, 0.00
164, 2706.04, 4960.32, 9791.74, 759.15, 5602.62, 35934.21, 22811.81, -15173.08, 0.00, 0.00, 0.00
165, 2627.40, 4886.29, 9790.60, 723.37, 5545.09, 36241.25, 23142.75, -15252.14, 0.00, 0.00, 0.00
166, 2626.35, 4885.80, 9747.95, 658.80, 5515.85, 35931.01, 22912.95, -15270.40, 0.04, 0.93, 0.33
167, 2715.98, 4975.54, 9781.82, 703.16, 5568.58, 35580.42, 22487.04, -15182.47, 0.00, 0.00, 0.00
168, 2724.34, 4990.47, 9839.82, 774.24, 5609.28, 35860.55, 22646.96, -15157.75, 0.00, 0.00, 0.00
169, 2649.98, 4925.41, 9813.18, 744.49, 5571.57, 36251.71, 23031.53, -15223.88, 0.00, 0.00, 0.00
170, 2627.58, 4900.58, 9753.56, 680.43, 5501.30, 36047.08, 22906.25, -15270.76, 0.00, 0.00, 0.00
171, 2719.16, 4988.53, 9779.85, 709.67, 5564.78, 35620.12, 22464.24, -15185.01, 0.00, 0.00, 0.00
172, 2740.68, 5018.10, 9837.81, 760.70, 5604.79, 35806.00, 22542.54, -15155.55, 0.00, 0.00, 0.00
173, 2677.40, 4955.09, 9858.75, 767.20, 5568.76, 36214.92, 22943.80, -15227.42, 0.00, 0.00, 0.00
174, 2641.04, 4920.29, 9807.39, 702.40, 5524.99, 36161.61, 22976.56, -15266.24, 0.00, 0.00, 0.00
175, 2714.31, 4996.82, 9805.49, 697.22, 5564.69, 35674.57, 22509.95, -15203.19, 0.00, 0.00, 0.00
176, 2755.19, 5036.99, 9882.62, 772.45, 5621.28, 35740.80, 22498.66, -15142.01, 0.04, 0.93, 0.33
177, 2693.41, 4982.14, 9905.58, 771.78, 5585.59, 36168.56, 22898.67, -15193.96, 0.00, 0.00, 0.00
178, 2631.27, 4921.88, 9845.61, 705.80, 5523.25, 36221.09, 23026.07, -15260.32, 0.00, 0.00, 0.00
179, 2703.31, 4991.57, 9827.15, 702.54, 5552.93, 35752.06, 22584.47, -15203.83, 0.00, 0.00, 0.00
180, 2758.16, 5049.01, 9902.90, 756.63, 5614.04, 35694.95, 22426.55, -15145.38, 0.00, 0.00, 0.00
181, 2703.33, 5002.16, 9965.46, 776.12, 5596.79, 36102.67, 22769.54, -15193.91, 0.00, 0.00, 0.00
182, 2633.33, 4939.47, 9936.80, 718.90, 5523.32, 36261.41, 22971.69, -15269.48, 0.00, 0.00, 0.00
183, 2678.59, 4991.77, 9912.66, 694.16, 5531.77, 35824.84, 22564.85, -15232.76, 0.00, 0.00, 0.00
184, 2743.01, 5058.47, 9953.99, 755.38, 5595.71, 35650.18, 22284.53, -15159.06, 0.00, 0.00, 0.00
185, 2720.79, 5025.34, 9984.08, 790.83, 5597.82, 36038.95, 22549.80, -15169.26, 0.00, 0.00, 0.00
186, 2640.34, 4953.88, 9955.02, 749.16, 5535.12, 36302.29, 22815.65, -15250.04, 0.04, 0.97, 0.33
187, 2649.49, 4962.29, 9912.06, 688.30, 5507.22, 35907.61, 22480.98, -15265.26, 0.00, 0.00, 0.00
188, 2734.53, 5046.20, 9973.93, 734.05, 5587.35, 35617.59, 22115.17, -15176.68, 0.00, 0.00, 0.00
189, 2727.99, 5042.24, 10057.46, 791.14, 5607.23, 35951.28, 22344.61, -15170.33, 0.00, 0.00, 0.00
190, 2634.02, 4959.58, 10038.39, 735.24, 5524.28, 36276.72, 22673.86, -15264.27, 0.00, 0.00, 0.00
191, 2625.50, 4952.72, 9990.94, 675.27, 5489.83, 35984.83, 22450.72, -15298.14, 0.00, 0.00, 0.00
192, 2711.91, 5034.71, 10015.91, 715.35, 5550.52, 35599.13, 22039.20, -15220.13, 0.00, 0.00, 0.00
193, 2729.10, 5055.45, 10076.84, 769.37, 5589.79, 35845.45, 22210.21, -15194.54, 0.00, 0.00, 0.00
194, 2655.36, 4991.79, 10090.49, 761.79, 5541.02, 36246.39, 22600.65, -15264.92, 0.00, 0.00, 0.00
195, 2634.38, 4973.51, 10028.74, 690.51, 5496.85, 36075.78, 22509.86, -15303.28, 0.03, 0.94, 0.31
196, 2720.50, 5058.87, 10042.66, 705.49, 5552.51, 35617.75, 22050.26, -15236.16, 0.00, 0.00, 0.00
197, 2744.77, 5087.68, 10105.58, 768.21, 5577.79, 35753.38, 22089.98, -15212.24, 0.00, 0.00, 0.00
198, 2679.66, 5034.84, 10129.72, 756.87, 5556.73, 36188.66, 22480.09, -15267.27, 0.00, 0.00, 0.00
199, 2612.99, 4962.69, 10094.25, 672.05, 5489.66, 36129.71, 22494.50, -15339.69, 0.00, 0.00, 0.00
200, 2694.91, 5037.81, 10104.75, 676.41, 5530.58, 35631.38, 22023.49, -15282.42, 0.00, 0.00, 0.00
201, 2751.25, 5095.26, 10164.77, 736.47, 5606.13, 35689.45, 21982.54, -15215.48, 0.00, 0.00, 0.00
202, 2691.24, 5041.41, 10174.63, 738.48, 5568.45, 36113.89, 22337.64, -15273.95, 0.00, 0.00, 0.00
203, 2626.71, 4983.61, 10125.43, 678.24, 5492.29, 36191.47, 22463.79, -15341.59, 0.00, 0.00, 0.00
204, 2681.74, 5038.62, 10113.16, 658.53, 5515.38, 35702.98, 22034.88, -15300.77, 0.00, 0.00, 0.00
205, 2726.96, 5087.06, 10168.23, 712.77, 5558.77, 35616.27, 21862.40, -15241.97, 0.02, 0.94, 0.29
206, 2694.17, 5058.33, 10217.18, 750.06, 5556.40, 36044.33, 22229.84, -15259.09, 0.00, 0.00, 0.00
207, 2610.01, 4970.27, 10158.84, 689.26, 5481.56, 36206.96, 22469.18, -15349.55, 0.00, 0.00, 0.00
208, 2639.43, 4994.81, 10089.60, 646.84, 5476.87, 35747.05, 22099.84, -15339.38, 0.00, 0.00, 0.00
209, 2707.29, 5057.89, 10118.52, 700.84, 5546.34, 35557.89, 21828.40, -15267.89, 0.00, 0.00, 0.00
210, 2686.70, 5046.49, 10173.31, 746.48, 5544.46, 35957.23, 22166.87, -15279.70, 0.00, 0.00, 0.00
211, 2625.99, 4996.04, 10169.89, 718.92, 5477.05, 36256.90, 22530.94, -15351.56, 0.00, 0.00, 0.00
212, 2655.74, 5023.08, 10139.67, 678.35, 5469.83, 35896.97, 22200.42, -15336.40, 0.00, 0.00, 0.00
213, 2761.47, 5122.64, 10209.90, 742.17, 5562.66, 35599.13, 21928.80, -15227.71, 0.00, 0.00, 0.00
214, 2824.46, 5200.36, 10338.11, 858.78, 5647.53, 35983.09, 22406.91, -15164.92, 0.00, 0.00, 0.00
215, 2895.80, 5284.49, 10486.77, 975.52, 5745.69, 36492.48, 23272.95, -15090.09, 0.03, 0.95, 0.27
216, 3019.92, 5394.08, 10575.68, 1054.13, 5851.53, 36362.91, 23145.88, -14978.51, 0.00, 0.00, 0.00
217, 3082.55, 5444.50, 10565.69, 1061.10, 5879.09, 35943.39, 22333.84, -14932.22, 0.00, 0.00, 0.00
218, 2929.29, 5299.44, 10467.81, 957.46, 5747.33, 36027.90, 22166.83, -15073.66, 0.00, 0.00, 0.00
219, 2729.95, 5112.83, 10361.24, 824.85, 5580.85, 36321.76, 22392.67, -15260.12, 0.00, 0.00, 0.00
220, 2647.30, 5042.62, 10253.13, 698.94, 5481.14, 36124.69, 22249.84, -15367.09, 0.00, 0.00, 0.00
221, 2733.35, 5115.93, 10251.81, 709.38, 5539.19, 35632.23, 21786.38, -15278.80, 0.00, 0.00, 0.00
222, 2794.64, 5181.89, 10338.93, 799.14, 5614.85, 35786.30, 21839.75, -15197.60, 0.00, 0.00, 0.00
223, 2741.13, 5132.88, 10410.24, 819.77, 5587.91, 36265.86, 22240.16, -15242.73, 0.00, 0.00, 0.00
224, 2690.73, 5073.42, 10381.49, 757.75, 5533.13, 36276.72, 22309.54, -15302.25, 0.00, 0.00, 0.00
225, 2760.64, 5138.58, 10359.45, 749.63, 5561.76, 35747.52, 21823.33, -15247.89, 0.01, 0.96, 0.27
226, 2812.54, 5189.63, 10412.00, 811.28, 5609.53, 35717.82, 21690.89, -15189.98, 0.00, 0.00, 0.00
227, 2744.21, 5131.16, 10438.29, 820.26, 5569.16, 36176.16, 22051.60, -15248.63, 0.00, 0.00, 0.00
228, 2640.10, 5031.91, 10364.97, 719.39, 5474.97, 36292.37, 22234.42, -15360.14, 0.00, 0.00, 0.00
229, 2689.90, 5079.72, 10328.99, 674.55, 5490.37, 35773.92, 21810.76, -15335.96, 0.00, 0.00, 0.00
230, 2765.56, 5153.78, 10407.62, 747.84, 5585.81, 35628.21, 21604.28, -15240.45, 0.00, 0.00, 0.00
231, 2708.94, 5102.55, 10455.56, 772.34, 5576.45, 36067.85, 21984.95, -15268.70, 0.00, 0.00, 0.00
232, 2598.64, 4999.41, 10406.95, 694.36, 5471.86, 36327.02, 22298.50, -15372.68, 0.00, 0.00, 0.00
233, 2627.72, 5035.89, 10340.05, 656.87, 5455.55, 35843.39, 21899.34, -15367.43, 0.00, 0.00, 0.00
234, 2718.40, 5123.87, 10359.56, 705.71, 5533.53, 35526.64, 21528.78, -15283.70, 0.00, 0.00, 0.00
235, 2682.19, 5085.92, 10412.90, 741.25, 5539.79, 35946.05, 21844.76, -15304.19, 0.02, 0.95, 0.26
236, 2579.57, 4981.91, 10396.18, 695.47, 5456.53, 36330.48, 22243.31, -15404.29, 0.00, 0.00, 0.00
237, 2588.69, 4983.39, 10335.69, 616.60, 5425.84, 35909.46, 21931.40, -15412.29, 0.00, 0.00, 0.00
238, 2694.39, 5090.90, 10386.70, 671.13, 5516.54, 35479.17, 21456.58, -15305.63, 0.00, 0.00, 0.00
239, 2685.38, 5093.09, 10458.85, 740.27, 5541.94, 35849.76, 21719.39, -15300.60, 0.00, 0.00, 0.00
240, 2586.79, 4999.84, 10468.48, 702.63, 5463.48, 36310.88, 22163.97, -15390.00, 0.00, 0.00, 0.00
241, 2574.94, 4987.88, 10414.82, 643.28, 5421.46, 36043.71, 21978.49, -15425.00, 0.00, 0.00, 0.00
242, 2688.45, 5096.15, 10434.55, 693.82, 5497.52, 35506.35, 21450.28, -15325.07, 0.00, 0.00, 0.00
243, 2713.55, 5122.66, 10506.95, 776.14, 5556.62, 35775.51, 21632.58, -15276.84, 0.00, 0.00, 0.00
244, 2610.77, 5029.41, 10511.33, 748.56, 5491.96, 36293.55, 22128.25, -15370.76, 0.00, 0.00, 0.00
245, 2572.33, 4992.71, 10460.01, 676.90, 5435.56, 36168.03, 22117.63, -15422.30, 0.03, 0.94, 0.25
246, 2669.65, 5087.66, 10461.40, 686.71, 5490.42, 35557.09, 21541.22, -15342.50, 0.00, 0.00, 0.00
247, 2723.65, 5145.06, 10552.77, 766.80, 5562.57, 35694.62, 21587.96, -15278.33, 0.00, 0.00, 0.00
248, 2651.32, 5084.02, 10615.13, 787.30, 5530.00, 36253.48, 22106.30, -15332.36, 0.00, 0.00, 0.00
249, 2584.89, 5018.88, 10537.57, 720.22, 5456.91, 36287.56, 22224.23, -15402.90, 0.00, 0.00, 0.00
250, 2669.87, 5099.01, 10479.19, 705.38, 5489.36, 35630.98, 21631.50, -15348.94, 0.00, 0.00, 0.00
251, 2733.93, 5158.58, 10550.65, 785.24, 5565.65, 35613.32, 21519.05, -15269.75, 0.00, 0.00, 0.00
252, 2659.88, 5087.39, 10608.70, 797.55, 5542.14, 36151.42, 21979.72, -15322.43, 0.00, 0.00, 0.00
253, 2575.95, 5008.53, 10559.28, 730.75, 5465.56, 36329.16, 22198.90, -15407.35, 0.00, 0.00, 0.00
254, 2647.43, 5074.27, 10511.47, 705.02, 5489.95, 35732.01, 21662.26, -15364.79, 0.00, 0.00, 0.00
255, 2728.83, 5155.05, 10568.11, 772.95, 5570.37, 35564.89, 21405.35, -15277.89, 0.03, 0.97, 0.26
0, 2671.12, 5108.13, 10615.02, 797.33, 5553.16, 36065.39, 21823.15, -15316.13, 0.00, 0.00, 0.00
1, 2563.50, 5012.94, 10563.90, 727.86, 5461.04, 36352.99, 22160.21, -15425.65, 0.00, 0.00, 0.00
2, 2613.92, 5053.26, 10499.42, 688.03, 5464.98, 35818.82, 21726.79, -15403.79, 0.00, 0.00, 0.00
3, 2710.51, 5142.09, 10529.04, 751.96, 5547.61, 35501.45, 21358.46, -15311.35, 0.00, 0.00, 0.00
4, 2678.66, 5112.11, 10596.94, 797.47, 5556.89, 35965.92, 21725.43, -15322.77, 0.00, 0.00, 0.00
5, 2569.65, 5012.00, 10570.90, 754.42, 5476.49, 36370.67, 22150.91, -15425.12, 0.00, 0.00, 0.00
6, 2583.59, 5028.56, 10498.48, 692.03, 5448.66, 35947.37, 21838.62, -15438.64, 0.00, 0.00, 0.00
7, 2692.13, 5133.26, 10533.95, 741.27, 5528.10, 35481.11, 21348.93, -15348.18, 0.00, 0.00, 0.00
8, 2693.99, 5136.94, 10606.46, 810.56, 5560.00, 35839.70, 21602.04, -15334.03, 0.00, 0.00, 0.00
9, 2589.83, 5038.75, 10592.56, 782.09, 5488.56, 36327.75, 22062.31, -15422.90, 0.04, 0.98, 0.25
10, 2562.14, 5016.51, 10513.12, 692.01, 5429.42, 36046.41, 21882.04, -15474.00, 0.00, 0.00, 0.00
11, 2675.03, 5122.17, 10521.17, 717.47, 5499.20, 35467.28, 21297.55, -15384.28, 0.00, 0.00, 0.00
12, 2711.53, 5151.99, 10599.62, 810.23, 5555.26, 35730.76, 21436.69, -15338.28, 0.00, 0.00, 0.00
13, 2618.24, 5069.73, 10609.79, 796.48, 5503.98, 36263.45, 21936.96, -15418.01, 0.00, 0.00, 0.00
14, 2572.48, 5019.33, 10525.73, 709.18, 5432.50, 36142.01, 21911.06, -15484.91, 0.00, 0.00, 0.00
15, 2682.41, 5121.70, 10509.37, 720.40, 5482.30, 35509.54, 21318.58, -15405.09, 0.00, 0.00, 0.00
16, 2734.07, 5181.31, 10588.40, 800.89, 5548.80, 35637.55, 21345.83, -15334.66, 0.00, 0.00, 0.00
17, 2647.59, 5104.27, 10629.89, 819.55, 5514.06, 36197.84, 21853.05, -15397.67, 0.00, 0.00, 0.00
18, 2577.69, 5032.45, 10571.32, 742.17, 5442.43, 36243.33, 21995.26, -15474.87, 0.00, 0.00, 0.00
19, 2665.18, 5126.39, 10533.68, 715.79, 5476.65, 35592.38, 21428.48, -15416.04, 0.03, 0.97, 0.24
20, 2730.51, 5187.15, 10593.81, 804.73, 5553.45, 35554.72, 21322.24, -15343.53, 0.00, 0.00, 0.00
21, 2663.23, 5114.48, 10628.97, 821.85, 5534.98, 36089.10, 21810.47, -15391.75, 0.00, 0.00, 0.00
22, 2570.81, 5024.14, 10568.15, 743.96, 5455.41, 36276.46, 22057.91, -15488.91, 0.00, 0.00, 0.00
23, 2646.33, 5095.39, 10522.66, 721.27, 5481.12, 35683.02, 21547.80, -15440.72, 0.00, 0.00, 0.00
24, 2742.40, 5192.29, 10575.55, 801.60, 5567.89, 35497.74, 21292.49, -15339.46, 0.00, 0.00, 0.00
25, 2685.76, 5143.38, 10623.14, 836.76, 5551.97, 35997.84, 21709.33, -15379.03, 0.00, 0.00, 0.00
26, 2578.01, 5037.41, 10570.30, 771.45, 5463.66, 36310.48, 22071.27, -15480.97, 0.00, 0.00, 0.00
27, 2621.48, 5075.37, 10506.66, 718.70, 5459.08, 35804.16, 21652.94, -15461.19, 0.00, 0.00, 0.00
28, 2723.94, 5175.81, 10546.07, 797.40, 5544.24, 35464.53, 21248.80, -15353.70, 0.03, 0.96, 0.23
29, 2702.01, 5162.47, 10606.37, 853.48, 5561.20, 35899.65, 21582.02, -15355.29, 0.00, 0.00, 0.00
30, 2604.29, 5070.43, 10578.72, 813.87, 5486.88, 36319.75, 22006.99, -15452.48, 0.00, 0.00, 0.00
31, 2612.83, 5084.33, 10496.58, 755.71, 5449.58, 35924.55, 21710.99, -15479.86, 0.00, 0.00, 0.00
32, 2718.93, 5190.50, 10509.86, 791.50, 5520.01, 35438.33, 21203.62, -15384.03, 0.00, 0.00, 0.00
33, 2726.42, 5195.10, 10579.28, 864.27, 5562.99, 35791.07, 21457.70, -15356.88, 0.00, 0.00, 0.00
34, 2630.49, 5103.33, 10573.02, 847.27, 5497.46, 36286.40, 21944.34, -15446.26, 0.00, 0.00, 0.00
35, 2587.73, 5057.28, 10473.71, 747.58, 5426.60, 36023.30, 21816.78, -15508.09, 0.00, 0.00, 0.00
36, 2695.93, 5162.43, 10469.65, 767.34, 5491.67, 35430.87, 21242.22, -15420.40, 0.00, 0.00, 0.00
37, 2737.66, 5211.42, 10553.62, 868.25, 5552.49, 35674.63, 21379.85, -15364.32, 0.00, 0.00, 0.00
38, 2653.71, 5133.17, 10563.57, 855.76, 5507.65, 36211.59, 21897.18, -15440.07, 0.03, 0.94, 0.22
39, 2592.74, 5082.21, 10462.45, 756.85, 5434.78, 36125.40, 21902.88, -15515.17, 0.00, 0.00, 0.00
40, 2696.83, 5180.42, 10442.31, 772.72, 5476.02, 35480.53, 21317.04, -15442.51, 0.00, 0.00, 0.00
41, 2760.46, 5234.33, 10527.47, 866.42, 5556.29, 35569.47, 21329.13, -15360.32, 0.00, 0.00, 0.00
42, 2682.75, 5161.46, 10557.33, 879.70, 5528.90, 36124.69, 21813.13, -15418.43, 0.00, 0.00, 0.00
43, 2604.49, 5088.46, 10483.93, 810.81, 5439.65, 36197.80, 21945.21, -15510.68, 0.00, 0.00, 0.00
44, 2696.92, 5173.53, 10442.51, 794.72, 5472.96, 35565.40, 21378.62, -15435.91, 0.00, 0.00, 0.00
45, 2767.39, 5241.24, 10486.32, 875.03, 5558.45, 35518.39, 21216.21, -15347.31, 0.00, 0.00, 0.00
46, 2714.22, 5202.95, 10520.21, 922.99, 5550.27, 36065.95, 21680.25, -15380.30, 0.00, 0.00, 0.00
47, 2620.59, 5115.93, 10452.19, 843.85, 5467.88, 36279.34, 21966.20, -15478.16, 0.00, 0.00, 0.00
48, 2665.96, 5152.64, 10382.81, 787.05, 5469.05, 35684.13, 21450.70, -15456.45, 0.04, 0.95, 0.22
49, 2756.53, 5234.73, 10442.51, 868.23, 5543.79, 35461.02, 21158.34, -15356.72, 0.00, 0.00, 0.00
50, 2721.50, 5207.46, 10504.31, 903.90, 5559.30, 35961.00, 21587.18, -15370.89, 0.00, 0.00, 0.00
51, 2623.56, 5116.58, 10466.63, 852.27, 5480.45, 36307.64, 21968.37, -15469.96, 0.00, 0.00, 0.00
52, 2652.73, 5136.05, 10401.90, 802.79, 5462.16, 35816.79, 21597.80, -15464.59, 0.00, 0.00, 0.00
53, 2753.35, 5232.74, 10443.05, 861.53, 5550.32, 35433.14, 21200.45, -15367.14, 0.00, 0.00, 0.00
54, 2739.39, 5231.67, 10515.91, 919.75, 5577.86, 35859.73, 21540.87, -15358.42, 0.00, 0.00, 0.00
55, 2639.00, 5137.32, 10486.97, 876.66, 5497.81, 36297.98, 21977.80, -15451.51, 0.00, 0.00, 0.00
56, 2639.96, 5135.65, 10382.63, 794.14, 5455.48, 35928.37, 21712.91, -15479.41, 0.00, 0.00, 0.00
57, 2744.32, 5240.28, 10382.74, 828.31, 5528.50, 35414.93, 21183.44, -15389.02, 0.00, 0.00, 0.00
58, 2750.85, 5245.53, 10453.24, 897.91, 5568.24, 35741.49, 21405.64, -15364.72, 0.03, 0.95, 0.23
59, 2663.39, 5160.70, 10461.85, 882.09, 5515.25, 36251.46, 21891.79, -15439.06, 0.00, 0.00, 0.00
60, 2634.78, 5133.79, 10384.91, 804.06, 5459.39, 36045.99, 21771.98, -15484.53, 0.00, 0.00, 0.00
61, 2738.83, 5238.13, 10379.32, 821.36, 5518.71, 35444.14, 21180.74, -15400.15, 0.00, 0.00, 0.00
62, 2778.10, 5280.47, 10458.20, 909.43, 5587.51, 35658.92, 21277.77, -15344.58, 0.00, 0.00, 0.00
63, 2699.42, 5206.41, 10479.50, 915.06, 5554.54, 36213.58, 21782.78, -15403.15, 0.00, 0.00, 0.00
64, 2639.47, 5149.15, 10403.82, 825.32, 5471.55, 36154.32, 21820.42, -15483.54, 0.00, 0.00, 0.00
65, 2736.21, 5243.41, 10387.30, 820.26, 5522.51, 35507.22, 21241.26, -15412.15, 0.00, 0.00, 0.00
66, 2791.24, 5296.13, 10455.39, 903.32, 5599.47, 35578.25, 21224.57, -15340.90, 0.00, 0.00, 0.00
67, 2718.37, 5227.54, 10496.33, 918.39, 5564.51, 36135.50, 21720.89, -15396.80, 0.00, 0.00, 0.00
68, 2637.30, 5147.67, 10436.63, 837.27, 5481.79, 36244.18, 21901.27, -15484.30, 0.02, 0.95, 0.22
69, 2706.77, 5217.19, 10389.43, 803.39, 5500.50, 35610.02, 21345.24, -15440.92, 0.00, 0.00, 0.00
70, 2789.12, 5302.64, 10452.08, 884.46, 5583.20, 35522.04, 21186.05, -15348.47, 0.00, 0.00, 0.00
71, 2729.13, 5244.84, 10488.06, 910.12, 5570.12, 36057.63, 21658.64, -15385.35, 0.00, 0.00, 0.00
72, 2630.44, 5154.04, 10428.29, 845.07, 5489.43, 36303.90, 21959.16, -15482.32, 0.00, 0.00, 0.00
73, 2681.49, 5197.14, 10365.08, 799.37, 5496.81, 35728.50, 21471.85, -15462.85, 0.00, 0.00, 0.00
74, 2775.37, 5281.81, 10425.32, 875.47, 5576.11, 35471.61, 21155.88, -15366.35, 0.00, 0.00, 0.00
75, 2751.79, 5258.72, 10501.99, 931.60, 5579.00, 35959.17, 21552.74, -15374.07, 0.00, 0.00, 0.00
76, 2649.53, 5163.79, 10456.64, 866.17, 5494.53, 36323.06, 21936.63, -15473.98, 0.00, 0.00, 0.00
77, 2668.62, 5179.08, 10368.24, 788.93, 5460.40, 35836.42, 21544.64, -15490.36, 0.00, 0.00, 0.00
78, 2775.82, 5285.05, 10403.31, 859.38, 5546.63, 35440.66, 21106.77, -15389.11, 0.02, 0.98, 0.22
79, 2762.34, 5282.99, 10470.27, 930.55, 5576.22, 35876.92, 21425.96, -15370.15, 0.00, 0.00, 0.00
80, 2667.37, 5198.55, 10455.72, 900.42, 5511.20, 36346.15, 21868.34, -15454.69, 0.00, 0.00, 0.00
81, 2654.52, 5181.20, 10366.18, 815.77, 5459.37, 36002.36, 21610.40, -15496.84, 0.00, 0.00, 0.00
82, 2757.00, 5281.58, 10366.52, 844.85, 5524.19, 35456.82, 21068.48, -15410.54, 0.00, 0.00, 0.00
83, 2774.81, 5296.47, 10448.41, 924.83, 5574.48, 35770.08, 21272.06, -15373.02, 0.00, 0.00, 0.00
84, 2668.46, 5191.57, 10441.93, 893.87, 5506.02, 36290.07, 21754.73, -15463.47, 0.00, 0.00, 0.00
85, 2636.19, 5163.21, 10358.71, 814.59, 5448.93, 36111.01, 21668.96, -15510.01, 0.00, 0.00, 0.00
86, 2730.24, 5255.10, 10333.64, 816.98, 5493.37, 35485.72, 21088.15, -15442.95, 0.00, 0.00, 0.00
87, 2770.28, 5297.54, 10404.25, 901.07, 5562.95, 35666.30, 21169.72, -15386.87, 0.00, 0.00, 0.00
88, 2686.77, 5216.23, 10415.87, 905.60, 5525.98, 36226.43, 21666.01, -15451.47, 0.03, 0.99, 0.22
89, 2623.04, 5150.20, 10338.33, 824.18, 5443.90, 36204.84, 21707.92, -15525.68, 0.00, 0.00, 0.00
90, 2708.05, 5231.00, 10299.97, 806.70, 5472.40, 35550.70, 21107.62, -15468.52, 0.00, 0.00, 0.00
91, 2764.13, 5289.67, 10363.90, 886.74, 5540.35, 35568.96, 21046.25, -15409.18, 0.00, 0.00, 0.00
92, 2695.64, 5227.11, 10401.09, 911.03, 5519.67, 36126.18, 21533.13, -15457.55, 0.00, 0.00, 0.00
93, 2598.52, 5134.37, 10318.77, 823.68, 5426.31, 36266.09, 21722.41, -15554.20, 0.00, 0.00, 0.00
94, 2676.87, 5221.23, 10277.76, 794.69, 5455.19, 35634.22, 21164.02, -15501.83, 0.00, 0.00, 0.00
95, 2766.59, 5298.91, 10359.99, 879.88, 5552.96, 35520.30, 20969.20, -15401.71, 0.00, 0.00, 0.00
96, 2720.39, 5251.56, 10417.19, 918.84, 5543.97, 36053.61, 21400.25, -15436.18, 0.00, 0.00, 0.00
97, 2627.36, 5165.76, 10373.33, 855.58, 5466.63, 36329.25, 21722.63, -15525.59, 0.00, 0.00, 0.00
98, 2674.97, 5214.64, 10320.76, 807.19, 5471.55, 35768.24, 21269.61, -15501.09, 0.01, 0.97, 0.23
99, 2758.00, 5289.92, 10354.47, 864.63, 5551.66, 35474.92, 20918.91, -15420.27, 0.00, 0.00, 0.00
100, 2732.05, 5270.94, 10411.91, 916.76, 5558.43, 35949.94, 21285.63, -15430.10, 0.00, 0.00, 0.00
101, 2634.64, 5180.26, 10389.29, 867.11, 5486.37, 36341.43, 21702.94, -15516.76, 0.00, 0.00, 0.00
102, 2648.84, 5190.61, 10315.29, 791.65, 5470.32, 35896.88, 21377.68, -15520.20, 0.00, 0.00, 0.00
103, 2748.30, 5290.41, 10340.81, 831.46, 5542.63, 35452.64, 20930.26, -15425.74, 0.00, 0.00, 0.00
104, 2747.23, 5291.80, 10434.87, 906.43, 5566.01, 35843.75, 21234.25, -15406.81, 0.00, 0.00, 0.00
105, 2645.22, 5189.69, 10422.91, 863.92, 5493.81, 36313.29, 21691.45, -15501.07, 0.00, 0.00, 0.00
106, 2629.57, 5174.79, 10337.77, 786.94, 5442.16, 36007.86, 21490.69, -15543.49, 0.00, 0.00, 0.00
107, 2732.99, 5281.36, 10338.33, 818.32, 5506.60, 35458.05, 20955.61, -15456.10, 0.00, 0.00, 0.00
108, 2754.43, 5306.75, 10415.38, 896.73, 5560.87, 35747.08, 21148.68, -15418.34, 0.00, 0.96, 0.22
109, 2665.36, 5218.06, 10422.01, 879.23, 5511.02, 36275.38, 21645.09, -15491.30, 0.00, 0.00, 0.00
110, 2632.45, 5183.79, 10350.96, 804.10, 5455.95, 36132.20, 21597.64, -15537.12, 0.00, 0.00, 0.00
111, 2721.32, 5273.25, 10325.30, 804.66, 5501.46, 35500.92, 21008.76, -15471.47, 0.00, 0.00, 0.00
112, 2761.56, 5313.81, 10394.52, 891.59, 5565.00, 35656.51, 21065.56, -15411.44, 0.00, 0.00, 0.00
113, 2675.39, 5235.94, 10404.31, 894.27, 5517.71, 36211.14, 21553.81, -15482.36, 0.00, 0.00, 0.00
114, 2618.10, 5181.29, 10319.93, 823.04, 5441.82, 36222.99, 21631.21, -15553.97, 0.00, 0.00, 0.00
115, 2704.87, 5262.67, 10255.63, 808.48, 5480.07, 35573.89, 21060.64, -15488.75, 0.00, 0.00, 0.00
116, 2769.65, 5324.83, 10309.61, 891.92, 5560.20, 35574.12, 20987.48, -15413.14, 0.00, 0.00, 0.00
117, 2707.51, 5263.48, 10341.77, 918.75, 5546.07, 36128.04, 21473.50, -15455.54, 0.01, 0.97, 0.22
118, 2626.17, 5183.55, 10281.67, 846.93, 5463.30, 36292.88, 21701.60, -15539.13, 0.00, 0.00, 0.00
119, 2694.23, 5251.56, 10234.62, 816.24, 5474.68, 35670.10, 21176.87, -15497.04, 0.00, 0.00, 0.00
120, 2775.66, 5329.50, 10291.37, 891.61, 5561.36, 35506.15, 20961.78, -15407.73, 0.00, 0.00, 0.00
121, 2736.77, 5300.11, 10352.39, 936.11, 5568.69, 36031.84, 21398.87, -15427.26, 0.00, 0.00, 0.00
122, 2631.05, 5203.46, 10296.80, 869.44, 5471.84, 36338.59, 21731.21, -15532.74, 0.00, 0.00, 0.00
123, 2667.95, 5233.15, 10215.42, 812.69, 5456.95, 35795.60, 21297.48, -15522.37, 0.00, 0.00, 0.00
124, 2767.55, 5317.90, 10247.74, 877.91, 5537.85, 35472.93, 20951.74, -15421.03, 0.00, 0.00, 0.00
125, 2746.29, 5296.60, 10315.73, 937.28, 5556.06, 35933.85, 21321.13, -15422.50, 0.00, 0.00, 0.00
126, 2644.43, 5200.98, 10295.39, 887.36, 5478.03, 36342.19, 21726.32, -15519.06, 0.00, 0.00, 0.00
127, 2662.70, 5229.97, 10229.63, 818.81, 5457.36, 35919.90, 21414.13, -15525.28, 0.02, 0.96, 0.22
128, 2755.75, 5318.66, 10249.53, 862.87, 5527.74, 35460.46, 20950.47, -15431.00, 0.00, 0.00, 0.00
129, 2753.20, 5316.97, 10316.25, 931.26, 5562.88, 35826.89, 21212.97, -15408.13, 0.00, 0.00, 0.00
130, 2664.69, 5239.32, 10324.45, 911.46, 5512.28, 36322.90, 21676.97, -15486.61, 0.00, 0.00, 0.00
131, 2635.70, 5204.85, 10252.50, 823.91, 5448.66, 36040.96, 21481.99, -15538.82, 0.00, 0.00, 0.00
132, 2732.86, 5296.13, 10259.47, 841.41, 5506.31, 35474.96, 20936.07, -15452.81, 0.00, 0.00, 0.00
133, 2761.07, 5323.60, 10349.89, 923.31, 5561.14, 35742.52, 21102.19, -15406.50, 0.00, 0.00, 0.00
134, 2670.72, 5238.53, 10366.94, 911.93, 5504.36, 36272.48, 21583.20, -15485.82, 0.00, 0.00, 0.00
135, 2629.37, 5203.78, 10300.94, 838.01, 5444.75, 36160.72, 21557.59, -15540.88, 0.00, 0.00, 0.00
136, 2732.46, 5305.28, 10286.14, 848.45, 5504.85, 35531.52, 20979.86, -15459.14, 0.00, 0.00, 0.00
137, 2777.32, 5346.16, 10346.15, 922.55, 5567.95, 35649.60, 21015.24, -15405.34, 0.02, 0.95, 0.22
138, 2692.92, 5265.65, 10374.74, 925.30, 5521.84, 36207.43, 21507.94, -15472.01, 0.00, 0.00, 0.00
139, 2629.66, 5213.19, 10311.02, 853.79, 5452.17, 36256.63, 21649.09, -15538.71, 0.00, 0.00, 0.00
140, 2702.01, 5280.31, 10260.21, 822.05, 5474.21, 35597.86, 21085.72, -15498.77, 0.00, 0.00, 0.00
141, 2776.15, 5348.30, 10332.45, 906.99, 5556.64, 35560.20, 20977.58, -15419.55, 0.00, 0.00, 0.00
142, 2715.87, 5295.84, 10383.44, 933.65, 5537.82, 36115.84, 21451.91, -15456.88, 0.00, 0.00, 0.00
143, 2620.88, 5205.10, 10322.46, 852.52, 5440.86, 36297.18, 21685.62, -15559.14, 0.00, 0.00, 0.00
144, 2675.19, 5254.72, 10262.56, 807.88, 5460.82, 35686.57, 21180.24, -15520.83, 0.00, 0.00, 0.00
145, 2770.90, 5351.10, 10331.49, 896.98, 5561.52, 35520.21, 20942.87, -15409.96, 0.00, 0.00, 0.00
146, 2735.94, 5318.51, 10399.77, 949.14, 5556.51, 36031.21, 21370.23, -15432.02, 0.00, 0.00, 0.00
147, 2623.25, 5206.03, 10343.22, 864.27, 5444.84, 36324.29, 21683.52, -15557.69, 0.03, 0.96, 0.21
148, 2658.67, 5240.39, 10275.52, 809.47, 5418.42, 35805.08, 21244.75, -15545.75, 0.00, 0.00, 0.00
149, 2748.12, 5325.08, 10312.04, 867.90, 5502.15, 35464.04, 20869.38, -15438.64, 0.00, 0.00, 0.00
150, 2741.84, 5320.70, 10391.93, 938.62, 5560.80, 35920.21, 21255.84, -15410.54, 0.00, 0.00, 0.00
151, 2639.88, 5227.04, 10364.44, 897.33, 5483.35, 36341.81, 21675.63, -15510.57, 0.00, 0.00, 0.00
152, 2639.52, 5228.05, 10266.36, 820.04, 5439.50, 35938.56, 21384.32, -15536.65, 0.00, 0.00, 0.00
153, 2742.51, 5327.72, 10289.38, 870.02, 5530.72, 35468.69, 20919.47, -15420.16, 0.00, 0.00, 0.00
154, 2748.12, 5335.99, 10376.39, 945.95, 5571.95, 35829.42, 21185.41, -15396.08, 0.00, 0.00, 0.00
155, 2656.10, 5246.60, 10375.14, 913.76, 5510.58, 36326.03, 21657.97, -15489.54, 0.00, 0.00, 0.00
156, 2625.68, 5215.80, 10289.36, 830.88, 5442.69, 36075.40, 21489.55, -15546.33, 0.00, 0.00, 0.00
157, 2729.68, 5315.60, 10281.13, 852.25, 5516.77, 35487.62, 20969.29, -15453.26, 0.03, 0.96, 0.22
158, 2760.57, 5348.50, 10356.23, 936.83, 5572.83, 35737.62, 21141.75, -15381.64, 0.00, 0.00, 0.00
159, 2677.25, 5261.58, 10379.84, 939.69, 5522.45, 36287.00, 21622.47, -15458.00, 0.00, 0.00, 0.00
160, 2615.47, 5202.17, 10283.25, 841.34, 5435.74, 36192.61, 21617.36, -15537.97, 0.00, 0.00, 0.00
161, 2710.46, 5288.96, 10265.06, 835.98, 5483.84, 35542.67, 21029.30, -15462.29, 0.00, 0.00, 0.00
162, 2761.54, 5342.42, 10352.75, 920.06, 5557.36, 35641.13, 21044.23, -15397.09, 0.00, 0.00, 0.00
163, 2683.80, 5280.98, 10395.30, 938.95, 5527.56, 36199.90, 21534.54, -15450.15, 0.00, 0.00, 0.00
164, 2615.85, 5218.86, 10333.32, 874.31, 5458.65, 36280.10, 21675.27, -15520.96, 0.00, 0.00, 0.00
165, 2692.40, 5291.26, 10275.95, 845.70, 5489.95, 35633.73, 21101.52, -15465.98, 0.00, 0.00, 0.00
166, 2763.86, 5358.23, 10340.99, 919.73, 5565.23, 35577.07, 20955.72, -15390.34, 0.00, 0.00, 0.00
167, 2706.13, 5307.22, 10395.80, 942.75, 5544.93, 36114.47, 21418.09, -15436.65, 0.02, 0.96, 0.22
168, 2609.86, 5215.06, 10332.16, 862.73, 5468.78, 36327.86, 21677.62, -15522.66, 0.00, 0.00, 0.00
169, 2661.31, 5261.89, 10256.63, 814.10, 5469.67, 35733.06, 21186.12, -15501.43, 0.00, 0.00, 0.00
170, 2757.11, 5355.28, 10308.83, 890.29, 5548.44, 35510.84, 20915.67, -15405.78, 0.00, 0.00, 0.00
171, 2721.39, 5324.83, 10379.05, 942.89, 5561.14, 36022.25, 21339.81, -15415.75, 0.00, 0.00, 0.00
172, 2620.94, 5234.76, 10340.83, 885.91, 5483.98, 36362.89, 21714.03, -15513.47, 0.00, 0.00, 0.00
173, 2641.51, 5257.71, 10249.91, 817.38, 5457.65, 35853.85, 21317.21, -15520.27, 0.00, 0.00, 0.00
174, 2738.89, 5344.15, 10279.39, 880.23, 5538.05, 35470.61, 20917.43, -15425.43, 0.00, 0.00, 0.00
175, 2734.74, 5341.53, 10360.10, 952.70, 5571.35, 35909.62, 21260.53, -15407.50, 0.00, 0.00, 0.00
176, 2637.15, 5249.40, 10346.31, 908.02, 5494.19, 36346.66, 21695.14, -15507.57, 0.00, 0.00, 0.00
177, 2633.62, 5246.18, 10256.57, 829.94, 5451.57, 35967.04, 21422.76, -15540.54, 0.02, 0.96, 0.22
178, 2738.29, 5352.17, 10247.00, 867.90, 5521.62, 35458.63, 20915.02, -15453.15, 0.00, 0.00, 0.00
179, 2754.76, 5362.32, 10331.49, 948.12, 5560.87, 35795.67, 21149.00, -15421.79, 0.00, 0.00, 0.00
180, 2657.69, 5265.13, 10336.92, 917.83, 5502.87, 36304.35, 21627.28, -15505.85, 0.00, 0.00, 0.00
181, 2621.90, 5230.60, 10253.91, 831.37, 5448.77, 36087.65, 21502.45, -15559.43, 0.00, 0.00, 0.00
182, 2723.92, 5329.91, 10243.25, 857.06, 5501.23, 35489.41, 20931.65, -15477.13, 0.00, 0.00, 0.00
183, 2762.30, 5369.94, 10318.10, 933.70, 5557.34, 35699.94, 21040.46, -15421.88, 0.00, 0.00, 0.00
184, 2681.72, 5293.36, 10335.29, 934.08, 5515.43, 36242.41, 21540.29, -15489.96, 0.00, 0.00, 0.00
185, 2632.59, 5244.52, 10252.25, 854.26, 5451.30, 36182.80, 21572.54, -15556.39, 0.00, 0.00, 0.00
186, 2714.66, 5323.31, 10200.80, 841.57, 5488.54, 35536.46, 20990.41, -15496.80, 0.00, 0.00, 0.00
187, 2770.61, 5381.52, 10271.32, 927.06, 5558.90, 35605.43, 20971.75, -15429.45, 0.02, 0.96, 0.22
188, 2700.94, 5319.36, 10311.89, 945.77, 5532.41, 36161.68, 21468.02, -15477.00, 0.00, 0.00, 0.00
189, 2619.16, 5243.96, 10233.12, 866.76, 5450.90, 36252.65, 21631.84, -15565.53, 0.00, 0.00, 0.00
190, 2699.15, 5317.41, 10169.24, 840.65, 5476.83, 35605.50, 21081.23, -15520.29, 0.00, 0.00, 0.00
191, 2771.46, 5377.29, 10229.07, 914.61, 5552.49, 35518.89, 20934.84, -15441.23, 0.00, 0.00, 0.00
192, 2719.56, 5333.19, 10293.36, 954.82, 5547.14, 36064.05, 21389.32, -15475.59, 0.00, 0.00, 0.00
193, 2626.91, 5244.95, 10256.59, 897.09, 5472.51, 36300.93, 21674.71, -15566.69, 0.00, 0.00, 0.00
194, 2679.15, 5299.71, 10193.11, 859.98, 5476.18, 35717.33, 21191.13, -15537.19, 0.00, 0.00, 0.00
195, 2779.98, 5394.75, 10252.28, 944.09, 5561.54, 35472.06, 20903.55, -15431.67, 0.00, 0.00, 0.00
196, 2746.05, 5366.90, 10329.59, 999.37, 5571.44, 35963.91, 21303.18, -15439.33, 0.03, 0.97, 0.22
197, 2642.78, 5272.96, 10301.18, 950.37, 5494.04, 36327.75, 21684.34, -15535.22, 0.00, 0.00, 0.00
198, 2665.53, 5293.65, 10214.52, 890.63, 5466.34, 35841.94, 21304.41, -15540.74, 0.00, 0.00, 0.00
199, 2763.86, 5387.55, 10228.83, 948.94, 5544.64, 35444.23, 20880.46, -15445.30, 0.00, 0.00, 0.00
200, 2748.73, 5372.62, 10277.06, 1014.08, 5567.35, 35853.23, 21187.89, -15441.43, 0.00, 0.00, 0.00
201, 2660.10, 5295.93, 10271.88, 986.72, 5508.48, 36307.73, 21625.60, -15525.66, 0.00, 0.00, 0.00
202, 2656.64, 5294.48, 10194.50, 917.16, 5469.07, 35969.88, 21387.69, -15553.39, 0.00, 0.00, 0.00
203, 2753.29, 5381.94, 10184.75, 947.02, 5534.92, 35446.13, 20876.84, -15464.88, 0.00, 0.00, 0.00
204, 2773.72, 5396.52, 10256.61, 1028.69, 5590.53, 35756.15, 21090.97, -15429.95, 0.00, 0.00, 0.00
205, 2679.17, 5314.78, 10262.45, 1005.78, 5534.27, 36269.75, 21572.36, -15510.30, 0.00, 0.00, 0.00
206, 2636.01, 5274.14, 10161.97, 912.69, 5459.59, 36080.23, 21478.30, -15566.96, 0.03, 0.97, 0.23
207, 2736.95, 5364.37, 10129.45, 924.33, 5518.27, 35478.27, 20908.67, -15488.64, 0.00, 0.00, 0.00
208, 2780.13, 5408.23, 10206.21, 1008.33, 5593.39, 35661.78, 21022.73, -15427.26, 0.00, 0.00, 0.00
209, 2698.62, 5332.92, 10231.04, 998.16, 5559.21, 36199.59, 21532.15, -15476.84, 0.00, 0.00, 0.00
210, 2640.61, 5276.93, 10152.88, 926.44, 5488.31, 36173.79, 21584.27, -15547.36, 0.00, 0.00, 0.00
211, 2722.29, 5352.59, 10102.90, 904.46, 5520.57, 35528.12, 20997.03, -15495.19, 0.00, 0.00, 0.00
212, 2777.67, 5407.94, 10160.43, 977.29, 5588.25, 35567.52, 20950.83, -15426.10, 0.00, 0.00, 0.00
213, 2703.58, 5347.83, 10189.78, 988.64, 5557.05, 36109.87, 21430.27, -15480.19, 0.00, 0.00, 0.00
214, 2627.89, 5266.63, 10124.31, 918.39, 5481.45, 36233.72, 21614.94, -15560.10, 0.00, 0.00, 0.00
215, 2699.58, 5328.25, 10065.30, 890.94, 5508.39, 35612.23, 21081.67, -15518.39, 0.00, 0.00, 0.00
216, 2779.71, 5408.29, 10122.30, 974.40, 5589.68, 35494.14, 20890.57, -15426.70, 0.02, 0.96, 0.23
217, 2730.00, 5368.58, 10184.04, 1018.77, 5577.52, 36017.27, 21327.38, -15452.92, 0.00, 0.00, 0.00
218, 2642.11, 5286.21, 10140.90, 965.91, 5504.74, 36278.31, 21626.27, -15542.44, 0.00, 0.00, 0.00
219, 2683.91, 5321.70, 10059.07, 919.08, 5501.08, 35721.28, 21165.69, -15528.54, 0.00, 0.00, 0.00
220, 2779.71, 5417.37, 10103.61, 990.94, 5579.46, 35454.89, 20840.16, -15435.69, 0.00, 0.00, 0.00
221, 2757.11, 5399.26, 10162.58, 1041.66, 5585.21, 35923.39, 21219.83, -15440.45, 0.00, 0.00, 0.00
222, 2660.37, 5302.37, 10118.10, 995.86, 5506.60, 36296.95, 21613.87, -15528.00, 0.00, 0.00, 0.00
223, 2668.87, 5315.85, 10024.80, 940.05, 5484.78, 35849.94, 21273.85, -15534.26, 0.00, 0.00, 0.00
224, 2769.74, 5419.92, 10038.73, 991.32, 5565.00, 35430.29, 20840.27, -15443.11, 0.00, 0.00, 0.00
225, 2763.73, 5415.16, 10102.83, 1053.97, 5599.02, 35828.64, 21140.37, -15429.61, 0.00, 0.00, 0.00
226, 2665.24, 5312.50, 10082.94, 1016.18, 5531.56, 36287.39, 21589.39, -15519.42, 0.03, 0.97, 0.23
227, 2658.36, 5304.81, 9995.88, 947.78, 5497.19, 35971.20, 21394.37, -15542.02, 0.00, 0.00, 0.00
228, 2757.24, 5404.74, 9983.43, 976.84, 5563.44, 35435.40, 20871.52, -15449.46, 0.00, 0.00, 0.00
229, 2776.04, 5424.52, 10047.53, 1045.41, 5603.54, 35714.00, 21059.86, -15424.20, 0.00, 0.00, 0.00
230, 2685.20, 5336.12, 10044.81, 1027.46, 5549.47, 36222.61, 21542.97, -15506.88, 0.00, 0.00, 0.00
231, 2648.73, 5299.11, 9946.55, 945.88, 5496.90, 36062.66, 21476.38, -15556.75, 0.00, 0.00, 0.00
232, 2749.76, 5396.25, 9914.54, 950.87, 5558.19, 35456.86, 20910.82, -15476.26, 0.00, 0.00, 0.00
233, 2784.29, 5435.07, 9972.25, 1021.39, 5609.39, 35612.81, 20973.04, -15429.23, 0.00, 0.00, 0.00
234, 2704.02, 5359.86, 9994.76, 1022.15, 5568.18, 36149.74, 21457.41, -15490.12, 0.00, 0.00, 0.00
235, 2637.73, 5292.42, 9917.65, 944.83, 5492.23, 36152.45, 21527.81, -15563.65, 0.00, 0.00, 0.00
236, 2714.75, 5358.63, 9863.60, 924.04, 5519.18, 35513.70, 20949.04, -15507.59, 0.03, 0.97, 0.23
237, 2784.96, 5432.97, 9935.22, 1014.17, 5605.50, 35532.34, 20893.29, -15421.52, 0.00, 0.00, 0.00
238, 2719.27, 5376.76, 9971.85, 1036.43, 5585.77, 36067.06, 21365.92, -15466.87, 0.00, 0.00, 0.00
239, 2632.79, 5294.44, 9875.69, 962.49, 5511.36, 36223.39, 21573.08, -15556.75, 0.00, 0.00, 0.00
240, 2695.91, 5360.24, 9793.39, 922.97, 5522.31, 35615.11, 21050.83, -15522.46, 0.00, 0.00, 0.00
241, 2776.00, 5432.66, 9845.07, 994.00, 5591.02, 35472.29, 20845.97, -15433.88, 0.00, 0.00, 0.00
242, 2732.59, 5386.79, 9898.04, 1040.83, 5583.94, 35980.81, 21274.43, -15453.41, 0.00, 0.00, 0.00
243, 2645.75, 5299.35, 9842.86, 988.06, 5509.84, 36265.68, 21603.29, -15539.51, 0.00, 0.00, 0.00
244, 2680.38, 5334.11, 9754.64, 929.97, 5498.69, 35723.03, 21171.21, -15531.71, 0.00, 0.00, 0.00
245, 2774.72, 5428.93, 9784.77, 1000.26, 5581.74, 35424.00, 20823.22, -15436.05, 0.00, 0.00, 0.00
246, 2754.70, 5419.69, 9849.32, 1063.83, 5596.03, 35890.48, 21190.10, -15435.40, 0.03, 0.96, 0.22
247, 2651.36, 5324.14, 9812.57, 1014.01, 5519.90, 36281.57, 21597.66, -15531.69, 0.00, 0.00, 0.00
248, 2660.57, 5323.25, 9726.27, 948.45, 5492.34, 35860.20, 21269.99, -15541.21, 0.00, 0.00, 0.00
249, 2755.50, 5414.62, 9738.05, 986.85, 5559.28, 35416.92, 20810.03, -15451.60, 0.00, 0.00, 0.00
250, 2763.12, 5426.35, 9815.19, 1058.78, 5603.76, 35786.50, 21094.39, -15422.08, 0.00, 0.00, 0.00
251, 2661.71, 5334.74, 9812.06, 1018.66, 5542.70, 36258.37, 21558.88, -15510.70, 0.00, 0.00, 0.00
252, 2640.77, 5318.55, 9733.09, 932.49, 5479.55, 35967.49, 21360.02, -15564.30, 0.00, 0.00, 0.00
253, 2748.62, 5421.33, 9733.80, 964.46, 5542.00, 35429.52, 20825.92, -15471.23, 0.00, 0.00, 0.00
254, 2776.15, 5445.98, 9812.93, 1042.22, 5599.40, 35694.57, 21002.01, -15427.78, 0.00, 0.00, 0.00
255, 2698.73, 5377.63, 9830.88, 1034.28, 5555.15, 36223.23, 21488.99, -15488.95, 0.00, 0.00, 0.00
0, 2657.94, 5336.34, 9752.13, 956.97, 5496.03, 36097.30, 21452.35, -15545.37, 0.02, 0.97, 0.23
1, 2741.11, 5406.73, 9720.95, 953.77, 5537.62, 35468.42, 20876.69, -15477.82, 0.00, 0.00, 0.00
2, 2786.01, 5448.44, 9792.30, 1034.30, 5604.19, 35601.88, 20925.88, -15415.21, 0.00, 0.00, 0.00
3, 2706.22, 5376.33, 9815.79, 1037.97, 5568.00, 36149.79, 21416.70, -15483.14, 0.00, 0.00, 0.00
4, 2632.19, 5308.20, 9736.02, 952.52, 5485.36, 36175.38, 21520.66, -15569.13, 0.00, 0.00, 0.00
5, 2717.19, 5395.55, 9691.29, 935.55, 5521.89, 35537.06, 20960.30, -15502.83, 0.00, 0.00, 0.00
6, 2785.18, 5454.23, 9756.47, 1019.51, 5598.31, 35523.49, 20874.81, -15417.94, 0.00, 0.00, 0.00
7, 2718.89, 5386.57, 9800.28, 1042.02, 5583.15, 36063.04, 21343.75, -15463.18, 0.00, 0.00, 0.00
8, 2638.80, 5310.39, 9741.54, 978.98, 5512.14, 36242.86, 21570.39, -15545.97, 0.00, 0.00, 0.00
9, 2694.50, 5364.60, 9669.45, 935.87, 5516.81, 35639.72, 21046.76, -15514.66, 0.00, 0.00, 0.00
10, 2777.34, 5440.88, 9716.55, 1007.30, 5601.37, 35463.39, 20830.71, -15430.17, 0.02, 0.98, 0.23
11, 2740.12, 5415.02, 9769.30, 1048.81, 5588.34, 35963.00, 21251.77, -15452.92, 0.00, 0.00, 0.00
12, 2652.21, 5341.82, 9731.86, 997.09, 5501.50, 36266.22, 21577.70, -15541.70, 0.00, 0.00, 0.00
13, 2686.39, 5365.29, 9659.04, 943.80, 5488.69, 35742.47, 21158.96, -15533.08, 0.00, 0.00, 0.00
14, 2782.86, 5450.41, 9693.19, 1005.45, 5567.89, 35409.16, 20789.71, -15441.68, 0.00, 0.00, 0.00
15, 2765.31, 5434.69, 9764.58, 1063.99, 5594.93, 35859.13, 21147.90, -15438.98, 0.00, 0.00, 0.00
16, 2664.08, 5336.88, 9733.36, 1014.48, 5528.01, 36267.80, 21559.51, -15531.38, 0.00, 0.00, 0.00
17, 2665.65, 5339.03, 9643.93, 939.22, 5494.33, 35869.16, 21261.76, -15552.88, 0.00, 0.00, 0.00
18, 2767.79, 5439.27, 9656.38, 983.43, 5560.64, 35404.58, 20786.12, -15461.59, 0.00, 0.00, 0.00
19, 2769.87, 5448.57, 9721.06, 1051.87, 5598.42, 35760.80, 21056.39, -15432.78, 0.00, 0.00, 0.00
20, 2678.95, 5364.44, 9714.94, 1028.81, 5542.88, 36251.96, 21533.36, -15510.01, 0.02, 0.97, 0.23
21, 2656.04, 5342.60, 9634.41, 952.85, 5499.13, 35996.43, 21376.67, -15552.28, 0.00, 0.00, 0.00
22, 2759.08, 5436.37, 9627.75, 975.39, 5564.65, 35431.94, 20834.82, -15465.15, 0.00, 0.00, 0.00
23, 2785.90, 5468.42, 9701.04, 1050.53, 5603.45, 35672.02, 20980.26, -15418.43, 0.00, 0.00, 0.00
24, 2700.31, 5384.36, 9710.11, 1039.18, 5551.64, 36196.88, 21470.37, -15494.05, 0.00, 0.00, 0.00
25, 2647.41, 5329.33, 9614.96, 951.92, 5482.73, 36092.86, 21467.75, -15565.46, 0.00, 0.00, 0.00
26, 2732.39, 5416.68, 9582.04, 951.42, 5527.45, 35461.51, 20895.88, -15490.12, 0.00, 0.00, 0.00
27, 2779.73, 5463.32, 9650.05, 1037.21, 5602.78, 35566.99, 20917.34, -15428.65, 0.00, 0.00, 0.00
28, 2703.42, 5393.86, 9683.54, 1049.15, 5573.05, 36127.01, 21405.79, -15482.40, 0.00, 0.00, 0.00
29, 2623.71, 5321.53, 9601.48, 963.38, 5489.19, 36190.51, 21532.02, -15561.28, 0.02, 0.97, 0.23
30, 2704.34, 5395.42, 9551.06, 943.94, 5515.92, 35553.85, 20972.60, -15510.21, 0.00, 0.00, 0.00
31, 2780.67, 5463.24, 9621.73, 1030.55, 5602.29, 35514.33, 20866.09, -15419.26, 0.00, 0.00, 0.00
32, 2714.80, 5399.02, 9652.69, 1046.62, 5581.43, 36040.00, 21323.65, -15466.31, 0.00, 0.00, 0.00
33, 2634.85, 5329.24, 9595.38, 983.05, 5508.90, 36245.39, 21579.74, -15551.16, 0.00, 0.00, 0.00
34, 2691.08, 5389.59, 9535.48, 943.31, 5503.31, 35659.68, 21079.84, -15525.16, 0.00, 0.00, 0.00
35, 2783.66, 5478.39, 9590.08, 1023.71, 5594.78, 35456.79, 20813.41, -15427.64, 0.00, 0.00, 0.00
36, 2748.59, 5445.26, 9644.00, 1073.02, 5606.98, 35960.58, 21223.54, -15444.05, 0.00, 0.00, 0.00
37, 2652.44, 5356.22, 9598.40, 1012.49, 5517.33, 36283.56, 21576.94, -15539.36, 0.00, 0.00, 0.00
38, 2678.03, 5376.94, 9514.78, 948.00, 5490.12, 35779.38, 21185.79, -15540.56, 0.00, 0.00, 0.00
39, 2775.55, 5466.81, 9549.40, 1008.91, 5574.21, 35424.32, 20804.64, -15442.17, 0.02, 0.97, 0.22
40, 2759.95, 5460.22, 9618.49, 1070.87, 5600.94, 35857.07, 21146.47, -15432.78, 0.00, 0.00, 0.00
41, 2667.70, 5379.75, 9597.21, 1033.88, 5535.99, 36282.11, 21581.37, -15516.56, 0.00, 0.00, 0.00
42, 2666.00, 5370.10, 9503.94, 952.54, 5490.33, 35900.79, 21307.00, -15548.14, 0.00, 0.00, 0.00
43, 2766.99, 5462.90, 9517.82, 984.48, 5558.45, 35403.55, 20814.75, -15459.23, 0.00, 0.00, 0.00
44, 2777.74, 5479.22, 9602.58, 1055.78, 5606.71, 35742.38, 21063.66, -15430.88, 0.00, 0.00, 0.00
45, 2676.22, 5384.56, 9597.26, 1023.17, 5542.76, 36234.08, 21538.32, -15518.23, 0.00, 0.00, 0.00
46, 2647.47, 5354.90, 9516.50, 939.15, 5486.19, 36001.77, 21403.22, -15565.55, 0.00, 0.00, 0.00
47, 2743.03, 5442.20, 9506.67, 948.59, 5541.40, 35414.91, 20849.04, -15485.00, 0.00, 0.00, 0.00
48, 2776.27, 5483.24, 9579.78, 1023.51, 5602.69, 35628.19, 20969.15, -15433.83, 0.00, 0.00, 0.00
49, 2700.83, 5412.45, 9604.88, 1028.87, 5563.64, 36167.45, 21467.96, -15496.82, 0.03, 0.96, 0.23
50, 2649.31, 5352.19, 9532.26, 951.58, 5494.10, 36104.95, 21491.11, -15556.39, 0.00, 0.00, 0.00
51, 2727.63, 5426.22, 9495.62, 934.12, 5521.69, 35468.77, 20912.04, -15498.86, 0.00, 0.00, 0.00
52, 2778.30, 5471.89, 9567.11, 1009.32, 5584.02, 35536.57, 20897.83, -15438.77, 0.00, 0.00, 0.00
53, 2720.41, 5421.55, 9619.14, 1031.69, 5567.26, 36087.52, 21385.12, -15480.04, 0.00, 0.00, 0.00
54, 2643.25, 5350.98, 9550.34, 950.89, 5489.95, 36183.36, 21526.09, -15564.03, 0.00, 0.00, 0.00
55, 2717.99, 5424.23, 9505.62, 930.53, 5515.25, 35556.50, 20979.30, -15514.93, 0.00, 0.00, 0.00
56, 2785.99, 5491.51, 9571.49, 1007.10, 5582.82, 35473.98, 20830.51, -15435.15, 0.00, 0.00, 0.00
57, 2732.79, 5449.44, 9636.46, 1034.26, 5569.81, 36001.75, 21281.70, -15472.01, 0.00, 0.00, 0.00
58, 2640.81, 5355.50, 9599.78, 964.01, 5489.45, 36225.52, 21556.87, -15565.17, 0.00, 0.00, 0.00
59, 2691.53, 5395.73, 9542.50, 918.63, 5493.43, 35646.43, 21072.35, -15539.20, 0.03, 0.96, 0.23
60, 2773.11, 5473.47, 9590.60, 983.72, 5572.25, 35403.29, 20788.66, -15449.44, 0.00, 0.00, 0.00
61, 2739.36, 5444.39, 9653.00, 1030.28, 5579.62, 35886.91, 21196.96, -15459.65, 0.00, 0.00, 0.00
62, 2646.56, 5366.45, 9617.37, 979.99, 5508.54, 36238.12, 21571.91, -15543.22, 0.00, 0.00, 0.00
63, 2659.25, 5382.81, 9523.03, 906.32, 5480.27, 35754.88, 21200.88, -15557.73, 0.00, 0.00, 0.00
64, 2767.62, 5475.64, 9556.85, 971.88, 5565.18, 35370.72, 20793.56, -15455.87, 0.00, 0.00, 0.00
65, 2767.17, 5481.61, 9636.33, 1050.29, 5600.34, 35798.64, 21120.77, -15435.20, 0.00, 0.00, 0.00
66, 2667.30, 5394.33, 9619.94, 1010.79, 5527.77, 36242.14, 21551.80, -15528.14, 0.00, 0.00, 0.00
67, 2659.21, 5388.89, 9526.51, 933.54, 5474.93, 35888.05, 21304.36, -15558.78, 0.00, 0.00, 0.00
68, 2758.61, 5478.03, 9527.23, 959.25, 5536.59, 35370.25, 20806.03, -15475.61, 0.00, 0.00, 0.00
69, 2781.59, 5494.71, 9614.33, 1036.85, 5590.91, 35688.16, 21045.22, -15434.26, 0.02, 0.96, 0.22
70, 2681.49, 5399.94, 9613.35, 1005.25, 5533.08, 36192.05, 21529.65, -15515.37, 0.00, 0.00, 0.00
71, 2646.76, 5369.16, 9526.38, 918.86, 5478.52, 35988.45, 21426.52, -15565.11, 0.00, 0.00, 0.00
72, 2747.01, 5462.25, 9516.03, 931.82, 5538.52, 35399.30, 20870.87, -15482.52, 0.00, 0.00, 0.00
73, 2776.38, 5494.46, 9588.36, 1006.36, 5596.79, 35598.66, 20968.86, -15434.08, 0.00, 0.00, 0.00
74, 2693.79, 5424.95, 9611.67, 1006.01, 5550.12, 36141.63, 21455.62, -15497.51, 0.00, 0.00, 0.00
75, 2632.68, 5369.49, 9537.44, 925.00, 5473.23, 36094.47, 21497.15, -15567.43, 0.00, 0.00, 0.00
76, 2717.84, 5440.10, 9508.54, 913.38, 5507.22, 35454.07, 20924.56, -15504.06, 0.00, 0.00, 0.00
77, 2780.00, 5503.49, 9593.79, 996.78, 5584.34, 35510.08, 20895.93, -15432.11, 0.00, 0.00, 0.00
78, 2711.04, 5438.67, 9632.53, 1010.70, 5555.70, 36053.36, 21378.66, -15490.36, 0.00, 0.00, 0.00
79, 2644.12, 5370.03, 9573.79, 941.88, 5480.29, 36167.56, 21563.38, -15564.44, 0.03, 0.96, 0.22
80, 2717.75, 5441.82, 9527.99, 913.83, 5499.83, 35551.25, 21030.44, -15519.96, 0.00, 0.00, 0.00
81, 2790.91, 5511.92, 9590.37, 988.51, 5572.85, 35445.46, 20855.09, -15441.95, 0.00, 0.00, 0.00
82, 2741.31, 5467.88, 9654.68, 1019.04, 5562.99, 35966.77, 21291.64, -15467.72, 0.00, 0.00, 0.00
83, 2647.85, 5382.14, 9613.06, 951.20, 5480.07, 36219.66, 21581.19, -15561.15, 0.00, 0.00, 0.00
84, 2694.39, 5427.29, 9551.21, 905.76, 5477.38, 35654.36, 21115.40, -15545.77, 0.00, 0.00, 0.00
85, 2785.92, 5511.94, 9601.04, 976.82, 5566.48, 35388.73, 20802.01, -15447.31, 0.00, 0.00, 0.00
86, 2751.79, 5483.53, 9669.59, 1028.02, 5575.04, 35866.41, 21192.89, -15460.79, 0.00, 0.00, 0.00
87, 2655.79, 5398.19, 9646.74, 976.79, 5491.69, 36230.75, 21574.28, -15552.10, 0.00, 0.00, 0.00
88, 2675.93, 5412.79, 9573.34, 909.96, 5469.16, 35776.89, 21227.09, -15555.65, 0.00, 0.00, 0.00
89, 2774.72, 5503.96, 9596.97, 955.25, 5541.06, 35374.23, 20795.82, -15468.08, 0.03, 0.96, 0.22
90, 2770.07, 5509.66, 9679.96, 1018.52, 5572.27, 35777.95, 21102.10, -15449.12, 0.00, 0.00, 0.00
91, 2673.45, 5414.51, 9674.08, 981.00, 5508.48, 36226.54, 21556.47, -15535.96, 0.00, 0.00, 0.00
92, 2657.15, 5392.92, 9578.19, 901.07, 5460.15, 35909.48, 21330.67, -15573.73, 0.00, 0.00, 0.00
93, 2762.16, 5487.98, 9577.54, 935.82, 5533.35, 35390.05, 20807.60, -15480.50, 0.00, 0.00, 0.00
94, 2781.81, 5509.01, 9651.82, 1011.22, 5594.44, 35686.10, 21019.94, -15438.95, 0.00, 0.00, 0.00
95, 2683.51, 5418.98, 9653.54, 987.25, 5535.36, 36195.34, 21516.53, -15513.52, 0.00, 0.00, 0.00
96, 2641.66, 5382.05, 9566.95, 899.12, 5461.78, 36022.61, 21435.70, -15570.83, 0.00, 0.00, 0.00
97, 2734.94, 5469.32, 9544.04, 903.39, 5511.31, 35411.73, 20859.61, -15502.86, 0.00, 0.00, 0.00
98, 2774.14, 5504.88, 9616.19, 983.45, 5575.87, 35577.67, 20948.75, -15447.69, 0.00, 0.00, 0.00
99, 2697.23, 5436.48, 9644.20, 986.63, 5532.86, 36131.77, 21446.70, -15507.13, 0.03, 0.96, 0.22
100, 2639.65, 5381.72, 9568.80, 911.08, 5461.89, 36123.55, 21510.85, -15574.07, 0.00, 0.00, 0.00
101, 2726.06, 5471.60, 9520.97, 898.29, 5505.64, 35485.14, 20938.06, -15510.30, 0.00, 0.00, 0.00
102, 2777.72, 5519.34, 9579.93, 971.23, 5569.47, 35503.35, 20882.56, -15445.21, 0.00, 0.00, 0.00
103, 2704.43, 5448.28, 9617.42, 985.42, 5541.13, 36037.85, 21360.53, -15501.72, 0.00, 0.00, 0.00
104, 2620.25, 5374.68, 9554.92, 909.13, 5462.07, 36174.13, 21564.38, -15584.91, 0.00, 0.00, 0.00
105, 2686.32, 5434.92, 9497.32, 869.35, 5471.28, 35560.55, 21026.51, -15546.38, 0.00, 0.00, 0.00
106, 2759.52, 5500.09, 9553.47, 937.19, 5543.30, 35420.68, 20816.94, -15469.11, 0.00, 0.00, 0.00
107, 2715.16, 5465.87, 9626.09, 987.63, 5551.68, 35940.96, 21263.35, -15484.26, 0.00, 0.00, 0.00
108, 2630.08, 5388.51, 9592.45, 936.56, 5488.76, 36232.09, 21580.54, -15563.50, 0.03, 0.96, 0.22
109, 2674.19, 5430.87, 9513.10, 886.31, 5483.69, 35683.02, 21124.54, -15548.14, 0.00, 0.00, 0.00
110, 2773.90, 5522.53, 9556.42, 954.80, 5562.88, 35394.23, 20796.04, -15452.52, 0.00, 0.00, 0.00
111, 2749.51, 5499.85, 9628.68, 1006.57, 5576.42, 35862.03, 21184.65, -15458.87, 0.00, 0.00, 0.00
112, 2652.44, 5410.64, 9601.50, 955.56, 5506.96, 36240.40, 21590.26, -15548.92, 0.00, 0.00, 0.00
113, 2666.09, 5433.40, 9523.65, 886.20, 5472.67, 35809.10, 21256.49, -15563.32, 0.00, 0.00, 0.00
114, 2760.35, 5519.00, 9537.04, 926.59, 5537.15, 35378.45, 20803.66, -15476.10, 0.00, 0.00, 0.00
115, 2755.10, 5512.23, 9610.27, 990.52, 5568.47, 35755.79, 21087.55, -15460.17, 0.00, 0.00, 0.00
116, 2658.87, 5430.09, 9606.29, 959.58, 5505.48, 36222.88, 21543.86, -15543.31, 0.00, 0.00, 0.00
117, 2643.43, 5410.44, 9519.85, 880.82, 5456.62, 35926.81, 21353.87, -15577.13, 0.00, 0.00, 0.00
118, 2746.45, 5497.17, 9527.56, 906.25, 5531.10, 35380.38, 20826.77, -15490.34, 0.03, 0.96, 0.23
119, 2765.40, 5519.27, 9610.62, 977.40, 5574.37, 35649.82, 21006.71, -15458.49, 0.00, 0.00, 0.00
120, 2674.70, 5435.92, 9625.44, 955.34, 5506.62, 36159.85, 21480.38, -15547.67, 0.00, 0.00, 0.00
121, 2633.46, 5402.82, 9536.66, 875.50, 5438.81, 36028.08, 21424.37, -15610.14, 0.00, 0.00, 0.00
122, 2734.58, 5497.17, 9515.79, 886.11, 5494.15, 35417.95, 20845.82, -15531.47, 0.00, 0.00, 0.00
123, 2780.31, 5535.66, 9593.10, 966.18, 5560.69, 35561.98, 20898.05, -15472.12, 0.00, 0.00, 0.00
124, 2689.34, 5453.92, 9615.65, 957.03, 5511.27, 36095.03, 21375.91, -15542.89, 0.00, 0.00, 0.00
125, 2615.13, 5379.48, 9539.37, 872.48, 5436.77, 36110.92, 21455.26, -15623.22, 0.00, 0.00, 0.00
126, 2693.97, 5455.14, 9488.85, 859.11, 5467.64, 35483.41, 20884.55, -15564.91, 0.00, 0.00, 0.00
127, 2760.71, 5521.77, 9562.66, 943.47, 5539.81, 35473.69, 20811.42, -15480.53, 0.00, 0.00, 0.00
128, 2698.03, 5468.26, 9604.14, 962.04, 5515.83, 35999.38, 21283.02, -15521.88, 0.03, 0.97, 0.23
129, 2607.24, 5378.03, 9528.57, 881.46, 5430.83, 36159.89, 21502.36, -15614.35, 0.00, 0.00, 0.00
130, 2676.98, 5436.64, 9461.34, 851.58, 5445.80, 35564.60, 20986.83, -15577.35, 0.00, 0.00, 0.00
131, 2782.70, 5542.36, 9530.11, 949.23, 5547.26, 35422.62, 20785.56, -15470.89, 0.00, 0.00, 0.00
132, 2747.05, 5513.26, 9601.33, 1002.83, 5559.39, 35937.11, 21231.79, -15488.48, 0.00, 0.00, 0.00
133, 2648.37, 5420.59, 9555.77, 949.01, 5478.77, 36238.84, 21572.21, -15585.47, 0.00, 0.00, 0.00
134, 2678.83, 5451.05, 9480.22, 897.65, 5460.49, 35725.57, 21148.17, -15580.04, 0.00, 0.00, 0.00
135, 2770.63, 5535.54, 9516.99, 961.88, 5545.02, 35402.23, 20786.81, -15486.25, 0.00, 0.00, 0.00
136, 2753.11, 5525.51, 9579.76, 1027.58, 5571.13, 35846.39, 21158.70, -15481.96, 0.00, 0.00, 0.00
137, 2665.07, 5438.38, 9564.94, 997.89, 5509.62, 36248.89, 21576.63, -15558.74, 0.00, 0.00, 0.00
138, 2669.27, 5436.77, 9478.01, 931.02, 5475.75, 35849.45, 21272.22, -15582.94, 0.03, 0.97, 0.23
139, 2768.55, 5530.72, 9486.73, 977.93, 5550.36, 35392.69, 20805.72, -15488.89, 0.00, 0.00, 0.00
140, 2773.76, 5541.35, 9569.18, 1055.43, 5595.18, 35762.43, 21078.50, -15457.10, 0.00, 0.00, 0.00
141, 2675.28, 5452.55, 9562.52, 1027.02, 5533.33, 36233.00, 21544.85, -15546.53, 0.00, 0.00, 0.00
142, 2661.27, 5441.98, 9474.79, 959.85, 5490.06, 35974.89, 21388.92, -15587.75, 0.00, 0.00, 0.00
143, 2762.97, 5536.82, 9465.38, 988.15, 5553.92, 35429.08, 20842.31, -15499.50, 0.00, 0.00, 0.00
144, 2781.07, 5560.71, 9539.17, 1063.74, 5602.58, 35680.76, 20991.26, -15450.40, 0.00, 0.00, 0.00
145, 2687.62, 5477.27, 9537.80, 1049.21, 5549.69, 36188.55, 21478.95, -15528.78, 0.00, 0.00, 0.00
146, 2642.69, 5427.76, 9452.24, 966.38, 5486.71, 36070.37, 21461.83, -15595.68, 0.00, 0.00, 0.00
147, 2736.03, 5515.38, 9413.01, 968.95, 5539.28, 35450.74, 20886.95, -15522.73, 0.00, 0.00, 0.00
148, 2791.20, 5569.52, 9484.92, 1059.05, 5611.05, 35571.64, 20913.92, -15447.20, 0.03, 0.96, 0.23
149, 2716.94, 5506.71, 9521.44, 1067.39, 5571.87, 36120.37, 21405.59, -15511.39, 0.00, 0.00, 0.00
150, 2644.21, 5433.24, 9441.58, 986.32, 5496.43, 36164.25, 21528.55, -15595.68, 0.00, 0.00, 0.00
151, 2731.49, 5512.30, 9400.58, 974.63, 5530.85, 35548.17, 20969.38, -15534.73, 0.00, 0.00, 0.00
152, 2799.38, 5582.44, 9468.53, 1056.92, 5604.54, 35514.51, 20866.94, -15451.51, 0.00, 0.00, 0.00
153, 2742.63, 5529.51, 9517.10, 1086.92, 5590.24, 36046.63, 21341.51, -15489.24, 0.00, 0.00, 0.00
154, 2652.57, 5439.99, 9456.91, 1013.18, 5505.82, 36232.40, 21581.59, -15581.49, 0.00, 0.00, 0.00
155, 2705.63, 5494.98, 9384.36, 970.24, 5505.97, 35644.80, 21076.98, -15554.29, 0.00, 0.00, 0.00
156, 2787.73, 5577.21, 9432.30, 1042.98, 5583.56, 35452.55, 20827.04, -15466.09, 0.00, 0.00, 0.00
157, 2754.36, 5539.81, 9504.95, 1094.63, 5594.78, 35947.17, 21245.51, -15475.88, 0.00, 0.00, 0.00
158, 2667.88, 5457.58, 9474.41, 1042.51, 5532.91, 36263.98, 21597.91, -15559.03, 0.03, 0.96, 0.23
159, 2698.21, 5488.38, 9391.26, 984.82, 5513.50, 35764.51, 21194.88, -15556.28, 0.00, 0.00, 0.00
160, 2794.06, 5579.89, 9424.57, 1046.58, 5588.23, 35419.60, 20814.12, -15463.65, 0.00, 0.00, 0.00
161, 2776.51, 5569.47, 9495.02, 1106.17, 5612.10, 35847.52, 21167.19, -15455.05, 0.00, 0.00, 0.00
162, 2674.88, 5476.60, 9471.42, 1062.51, 5544.66, 36261.88, 21597.95, -15538.98, 0.00, 0.00, 0.00
163, 2667.28, 5467.88, 9375.86, 987.86, 5508.05, 35882.02, 21322.94, -15564.44, 0.00, 0.00, 0.00
164, 2768.13, 5558.28, 9380.54, 1029.61, 5579.62, 35399.93, 20847.25, -15475.16, 0.00, 0.00, 0.00
165, 2773.90, 5566.88, 9458.59, 1098.74, 5613.62, 35738.83, 21092.54, -15449.82, 0.00, 0.00, 0.00
166, 2685.16, 5485.94, 9458.27, 1077.67, 5557.18, 36232.24, 21563.17, -15531.42, 0.00, 0.00, 0.00
167, 2648.82, 5451.68, 9353.96, 987.52, 5496.25, 35994.00, 21425.78, -15578.92, 0.00, 0.00, 0.00
168, 2745.71, 5539.79, 9345.22, 1000.31, 5552.08, 35421.64, 20876.51, -15496.60, 0.02, 0.96, 0.23
169, 2775.55, 5565.43, 9428.70, 1072.93, 5608.99, 35642.05, 21012.74, -15450.40, 0.00, 0.00, 0.00
170, 2696.85, 5492.34, 9456.42, 1067.83, 5570.59, 36173.13, 21515.43, -15516.31, 0.00, 0.00, 0.00
171, 2653.82, 5455.46, 9385.01, 995.41, 5514.26, 36105.80, 21521.96, -15577.44, 0.00, 0.00, 0.00
172, 2738.22, 5543.10, 9348.88, 986.61, 5548.02, 35483.50, 20950.71, -15515.98, 0.00, 0.00, 0.00
173, 2787.42, 5590.95, 9415.47, 1066.29, 5613.44, 35566.52, 20952.99, -15449.17, 0.00, 0.00, 0.00
174, 2708.20, 5507.89, 9453.09, 1074.18, 5580.96, 36101.64, 21435.61, -15510.25, 0.00, 0.00, 0.00
175, 2636.46, 5442.25, 9384.51, 1002.72, 5509.44, 36184.99, 21579.51, -15591.26, 0.00, 0.00, 0.00
176, 2709.95, 5517.62, 9327.63, 981.89, 5535.23, 35569.54, 21030.93, -15533.21, 0.00, 0.00, 0.00
177, 2780.91, 5590.57, 9391.15, 1059.52, 5606.44, 35501.83, 20892.80, -15452.99, 0.00, 0.00, 0.00
178, 2726.82, 5541.06, 9444.15, 1086.72, 5594.17, 36022.11, 21350.63, -15488.35, 0.02, 0.96, 0.23
179, 2638.71, 5458.36, 9380.38, 1014.37, 5514.82, 36243.42, 21623.01, -15580.13, 0.00, 0.00, 0.00
180, 2690.84, 5499.74, 9305.37, 967.45, 5515.05, 35666.39, 21127.67, -15559.43, 0.00, 0.00, 0.00
181, 2773.63, 5572.49, 9345.35, 1032.18, 5588.25, 35443.50, 20846.60, -15474.92, 0.00, 0.00, 0.00
182, 2742.56, 5548.51, 9411.16, 1081.98, 5596.88, 35926.07, 21250.18, -15490.12, 0.00, 0.00, 0.00
183, 2655.99, 5469.23, 9384.18, 1037.79, 5529.46, 36265.73, 21621.91, -15573.76, 0.00, 0.00, 0.00
184, 2679.84, 5494.75, 9300.27, 977.55, 5508.48, 35788.23, 21243.34, -15570.58, 0.00, 0.00, 0.00
185, 2772.02, 5587.76, 9311.56, 1028.56, 5583.91, 35413.88, 20834.31, -15480.50, 0.00, 0.00, 0.00
186, 2764.24, 5581.83, 9376.85, 1097.09, 5615.50, 35831.19, 21168.35, -15464.70, 0.00, 0.00, 0.00
187, 2661.82, 5481.85, 9351.25, 1052.63, 5539.28, 36259.18, 21606.78, -15560.26, 0.00, 0.00, 0.00
188, 2656.17, 5471.17, 9252.64, 978.58, 5493.23, 35902.13, 21351.39, -15583.84, 0.02, 0.96, 0.23
189, 2768.46, 5579.78, 9255.30, 1022.64, 5574.82, 35413.90, 20851.83, -15485.58, 0.00, 0.00, 0.00
190, 2773.72, 5587.47, 9314.04, 1087.81, 5618.47, 35739.25, 21081.40, -15458.29, 0.00, 0.00, 0.00
191, 2679.10, 5499.33, 9302.66, 1058.65, 5558.86, 36235.84, 21554.86, -15546.82, 0.00, 0.00, 0.00
192, 2647.34, 5472.53, 9215.47, 977.53, 5498.60, 36024.39, 21438.47, -15592.51, 0.00, 0.00, 0.00
193, 2746.60, 5568.80, 9193.41, 994.50, 5553.20, 35440.28, 20876.24, -15507.73, 0.00, 0.00, 0.00
194, 2787.69, 5605.28, 9273.63, 1074.07, 5615.45, 35641.49, 20993.85, -15454.38, 0.00, 0.00, 0.00
195, 2700.47, 5517.68, 9292.27, 1067.03, 5571.93, 36170.33, 21481.43, -15524.31, 0.00, 0.00, 0.00
196, 2633.57, 5458.09, 9206.88, 984.06, 5500.05, 36124.87, 21505.53, -15594.05, 0.00, 0.00, 0.00
197, 2719.11, 5541.51, 9176.53, 982.76, 5542.14, 35503.09, 20940.10, -15522.44, 0.02, 0.96, 0.23
198, 2770.48, 5589.34, 9253.02, 1064.84, 5612.10, 35565.40, 20936.12, -15449.28, 0.00, 0.00, 0.00
199, 2690.57, 5514.62, 9290.03, 1069.93, 5575.49, 36098.56, 21420.10, -15508.87, 0.00, 0.00, 0.00
200, 2612.87, 5436.15, 9223.42, 993.38, 5494.93, 36190.07, 21584.27, -15592.49, 0.00, 0.00, 0.00
201, 2678.25, 5495.04, 9170.76, 961.39, 5512.59, 35572.93, 21037.26, -15551.09, 0.00, 0.00, 0.00
202, 2756.04, 5569.88, 9242.13, 1045.03, 5603.27, 35479.21, 20878.21, -15456.48, 0.00, 0.00, 0.00
203, 2697.18, 5518.29, 9296.22, 1075.03, 5590.31, 36000.39, 21336.13, -15491.14, 0.00, 0.00, 0.00
204, 2599.13, 5424.86, 9240.23, 1004.80, 5503.89, 36237.00, 21622.54, -15586.00, 0.00, 0.00, 0.00
205, 2645.55, 5466.25, 9164.93, 959.40, 5509.28, 35677.56, 21144.53, -15563.12, 0.00, 0.00, 0.00
206, 2737.33, 5557.38, 9206.24, 1031.64, 5596.12, 35430.84, 20842.58, -15472.30, 0.00, 0.00, 0.00
207, 2706.42, 5525.26, 9268.17, 1078.90, 5604.14, 35906.73, 21229.71, -15487.28, 0.03, 0.96, 0.23
208, 2598.79, 5418.55, 9233.86, 1030.21, 5533.02, 36264.39, 21610.69, -15575.34, 0.00, 0.00, 0.00
209, 2606.39, 5419.60, 9152.79, 971.00, 5511.31, 35807.79, 21243.16, -15578.29, 0.00, 0.00, 0.00
210, 2685.74, 5487.15, 9166.63, 1009.61, 5580.60, 35408.47, 20816.40, -15487.86, 0.00, 0.00, 0.00
211, 2665.24, 5468.00, 9236.21, 1069.73, 5615.41, 35804.30, 21125.88, -15477.55, 0.00, 0.00, 0.00
212, 2541.35, 5353.51, 9218.73, 1032.74, 5549.92, 36250.26, 21568.11, -15561.13, 0.00, 0.00, 0.00
213, 2508.94, 5320.03, 9131.20, 962.00, 5508.65, 35923.03, 21341.31, -15584.89, 0.00, 0.00, 0.00
214, 2600.20, 5404.58, 9130.33, 996.13, 5580.69, 35412.56, 20837.21, -15492.24, 0.00, 0.00, 0.00
215, 2602.37, 5407.60, 9195.71, 1065.08, 5626.05, 35711.31, 21058.72, -15458.26, 0.00, 0.00, 0.00
216, 2493.14, 5308.81, 9189.54, 1040.54, 5566.50, 36214.65, 21544.71, -15542.73, 0.00, 0.00, 0.00
217, 2441.55, 5259.14, 9088.02, 952.43, 5498.37, 36024.26, 21461.09, -15603.64, 0.03, 0.96, 0.22
218, 2533.23, 5342.16, 9064.73, 965.46, 5557.20, 35425.05, 20895.55, -15520.76, 0.00, 0.00, 0.00
219, 2575.44, 5384.11, 9144.50, 1048.83, 5625.46, 35609.75, 20990.21, -15456.63, 0.00, 0.00, 0.00
220, 2487.95, 5306.24, 9157.38, 1037.52, 5586.37, 36143.20, 21506.94, -15526.86, 0.00, 0.00, 0.00
221, 2419.69, 5245.91, 9072.97, 952.39, 5507.09, 36110.09, 21558.23, -15606.86, 0.00, 0.00, 0.00
222, 2507.11, 5323.02, 9038.78, 949.97, 5544.48, 35484.45, 20974.07, -15544.88, 0.00, 0.00, 0.00
223, 2570.67, 5384.74, 9113.34, 1035.47, 5626.02, 35530.46, 20933.01, -15473.35, 0.00, 0.00, 0.00
224, 2511.22, 5329.86, 9157.62, 1052.28, 5598.69, 36070.95, 21411.88, -15516.31, 0.00, 0.00, 0.00
225, 2440.54, 5255.19, 9086.07, 978.74, 5510.24, 36196.68, 21592.63, -15602.23, 0.00, 0.00, 0.00
226, 2509.52, 5310.08, 9023.13, 949.28, 5524.70, 35581.03, 21051.72, -15562.83, 0.00, 0.00, 0.00
227, 2600.04, 5403.62, 9081.54, 1034.51, 5604.10, 35462.38, 20856.86, -15467.61, 0.02, 0.96, 0.23
228, 2569.89, 5387.89, 9136.90, 1079.79, 5604.21, 35986.60, 21296.52, -15491.08, 0.00, 0.00, 0.00
229, 2486.56, 5315.20, 9084.93, 1015.13, 5523.99, 36246.62, 21606.74, -15583.84, 0.00, 0.00, 0.00
230, 2548.97, 5374.05, 9019.06, 970.20, 5516.90, 35692.72, 21150.96, -15563.68, 0.00, 0.00, 0.00
231, 2653.35, 5477.92, 9062.47, 1040.27, 5597.95, 35420.00, 20822.84, -15467.94, 0.00, 0.00, 0.00
232, 2633.77, 5470.28, 9118.64, 1095.26, 5620.97, 35886.37, 21210.66, -15469.24, 0.00, 0.00, 0.00
233, 2537.37, 5372.87, 9078.81, 1035.36, 5541.62, 36253.81, 21614.49, -15567.21, 0.00, 0.00, 0.00
234, 2558.05, 5390.39, 8996.49, 967.76, 5504.21, 35810.13, 21273.07, -15581.96, 0.00, 0.00, 0.00
235, 2676.00, 5502.66, 9027.78, 1030.19, 5587.20, 35400.65, 20835.00, -15479.19, 0.00, 0.00, 0.00
236, 2676.73, 5507.87, 9096.62, 1094.77, 5622.72, 35799.25, 21144.55, -15456.03, 0.00, 0.00, 0.00
237, 2572.53, 5412.97, 9073.62, 1051.72, 5549.54, 36254.91, 21607.41, -15550.89, 0.03, 0.96, 0.23
238, 2560.82, 5401.43, 8990.65, 975.61, 5500.54, 35948.49, 21400.97, -15584.95, 0.00, 0.00, 0.00
239, 2673.45, 5510.78, 9000.02, 1012.51, 5578.01, 35416.54, 20877.18, -15489.02, 0.00, 0.00, 0.00
240, 2698.48, 5539.30, 9076.84, 1087.86, 5629.58, 35707.87, 21078.03, -15447.85, 0.00, 0.00, 0.00
241, 2602.61, 5448.89, 9079.68, 1058.11, 5573.27, 36211.79, 21560.89, -15533.63, 0.00, 0.00, 0.00
242, 2559.14, 5410.04, 8992.58, 970.98, 5503.04, 36049.34, 21488.14, -15597.83, 0.00, 0.00, 0.00
243, 2663.43, 5506.87, 8979.81, 981.93, 5552.08, 35441.24, 20910.68, -15516.63, 0.00, 0.00, 0.00
244, 2703.71, 5544.64, 9060.08, 1057.06, 5612.72, 35591.08, 20975.17, -15463.00, 0.00, 0.00, 0.00
245, 2630.22, 5478.81, 9096.29, 1062.33, 5583.26, 36136.09, 21478.19, -15526.10, 0.00, 0.00, 0.00
246, 2573.09, 5426.78, 9022.21, 988.17, 5515.16, 36147.08, 21568.52, -15598.77, 0.00, 0.00, 0.00
247, 2652.55, 5504.25, 8975.77, 969.26, 5541.13, 35505.99, 20990.61, -15538.51, 0.02, 0.97, 0.23
248, 2724.21, 5581.70, 9056.35, 1054.47, 5616.12, 35515.98, 20920.18, -15456.05, 0.00, 0.00, 0.00
249, 2662.03, 5533.31, 9103.19, 1075.39, 5594.17, 36057.00, 21392.05, -15500.35, 0.00, 0.00, 0.00
250, 2582.32, 5445.09, 9047.67, 1009.38, 5526.27, 36220.24, 21616.44, -15583.05, 0.00, 0.00, 0.00
251, 2641.40, 5492.07, 8984.91, 971.43, 5529.89, 35603.13, 21101.68, -15554.51, 0.00, 0.00, 0.00
252, 2723.69, 5568.47, 9044.05, 1042.84, 5603.67, 35446.78, 20876.37, -15471.27, 0.00, 0.00, 0.00
253, 2682.72, 5536.55, 9092.58, 1079.66, 5608.19, 35957.23, 21311.70, -15490.45, 0.00, 0.00, 0.00
254, 2587.75, 5451.25, 9043.31, 1012.04, 5517.89, 36249.41, 21645.12, -15586.27, 0.00, 0.00, 0.00
255, 2623.78, 5484.31, 8965.84, 952.39, 5496.25, 35710.22, 21198.80, -15583.97, 0.00, 0.00, 0.00
0, 2724.30, 5579.24, 9015.15, 1021.16, 5582.62, 35408.20, 20857.15, -15484.77, 0.00, 0.00, 0.00
1, 2701.23, 5561.31, 9085.09, 1073.24, 5604.61, 35865.59, 21229.96, -15482.65, 0.02, 0.97, 0.23
2, 2604.45, 5473.72, 9052.39, 1023.73, 5535.10, 36262.17, 21643.95, -15572.08, 0.00, 0.00, 0.00
3, 2616.00, 5480.71, 8958.85, 955.11, 5499.40, 35839.01, 21319.00, -15585.94, 0.00, 0.00, 0.00
4, 2721.41, 5580.81, 8977.44, 1007.66, 5575.71, 35402.26, 20851.90, -15484.57, 0.00, 0.00, 0.00
5, 2721.24, 5586.46, 9047.14, 1076.80, 5609.57, 35777.77, 21131.05, -15466.83, 0.00, 0.00, 0.00
6, 2623.00, 5497.32, 9029.84, 1042.78, 5541.71, 36247.40, 21594.29, -15558.04, 0.00, 0.00, 0.00
7, 2606.53, 5479.95, 8932.09, 964.57, 5492.81, 35966.93, 21415.52, -15594.54, 0.00, 0.00, 0.00
8, 2712.00, 5577.41, 8917.63, 993.02, 5559.46, 35412.43, 20873.47, -15506.61, 0.00, 0.00, 0.00
9, 2734.67, 5600.65, 8983.93, 1072.64, 5611.14, 35675.02, 21041.17, -15459.25, 0.00, 0.00, 0.00
10, 2645.28, 5523.14, 8989.92, 1061.51, 5566.01, 36196.66, 21535.08, -15534.10, 0.00, 0.00, 0.00
11, 2593.72, 5474.79, 8896.37, 972.01, 5501.93, 36065.50, 21508.86, -15601.83, 0.02, 0.97, 0.23
12, 2693.03, 5568.40, 8879.25, 981.42, 5548.78, 35447.74, 20932.07, -15525.66, 0.00, 0.00, 0.00
13, 2736.39, 5600.30, 8955.14, 1059.25, 5606.38, 35580.60, 20971.05, -15465.51, 0.00, 0.00, 0.00
14, 2657.60, 5531.52, 8984.98, 1062.74, 5573.03, 36121.18, 21463.66, -15517.59, 0.00, 0.00, 0.00
15, 2588.87, 5461.89, 8913.61, 984.77, 5498.64, 36159.51, 21580.01, -15592.67, 0.00, 0.00, 0.00
16, 2678.61, 5546.05, 8869.35, 974.04, 5529.46, 35527.83, 21018.37, -15529.63, 0.00, 0.00, 0.00
17, 2747.92, 5611.99, 8937.08, 1053.17, 5607.40, 35506.08, 20930.57, -15445.64, 0.00, 0.00, 0.00
18, 2689.21, 5554.10, 8975.03, 1074.43, 5594.55, 36041.88, 21402.22, -15486.99, 0.00, 0.00, 0.00
19, 2601.25, 5476.58, 8903.64, 991.68, 5506.35, 36225.29, 21638.63, -15583.50, 0.00, 0.00, 0.00
20, 2664.51, 5537.60, 8838.17, 949.35, 5508.12, 35628.70, 21115.38, -15554.44, 0.00, 0.00, 0.00
21, 2749.09, 5617.91, 8887.08, 1019.22, 5591.49, 35444.46, 20858.04, -15471.59, 0.02, 0.97, 0.24
22, 2714.49, 5593.86, 8952.52, 1064.88, 5591.80, 35949.70, 21275.08, -15488.84, 0.00, 0.00, 0.00
23, 2617.68, 5501.03, 8910.84, 1004.80, 5503.67, 36261.86, 21624.73, -15581.49, 0.00, 0.00, 0.00
24, 2651.74, 5531.79, 8833.45, 948.68, 5491.15, 35740.17, 21201.70, -15569.75, 0.00, 0.00, 0.00
25, 2752.19, 5628.86, 8867.90, 1014.41, 5579.98, 35403.82, 20832.83, -15469.98, 0.00, 0.00, 0.00
26, 2724.30, 5606.85, 8924.09, 1058.87, 5587.33, 35841.67, 21185.74, -15481.62, 0.00, 0.00, 0.00
27, 2627.81, 5510.22, 8882.90, 998.01, 5499.53, 36242.26, 21598.06, -15585.33, 0.00, 0.00, 0.00
28, 2631.14, 5514.71, 8784.64, 924.56, 5464.24, 35842.54, 21308.01, -15602.17, 0.00, 0.00, 0.00
29, 2725.77, 5612.84, 8801.92, 985.09, 5554.48, 35383.01, 20849.84, -15492.51, 0.00, 0.00, 0.00
30, 2741.46, 5631.07, 8891.72, 1070.47, 5608.30, 35745.27, 21125.55, -15445.70, 0.03, 0.97, 0.24
31, 2646.54, 5546.05, 8893.60, 1043.00, 5543.14, 36241.68, 21596.97, -15529.46, 0.00, 0.00, 0.00
32, 2615.51, 5525.53, 8796.44, 960.34, 5479.93, 35987.43, 21442.56, -15583.21, 0.00, 0.00, 0.00
33, 2727.94, 5638.12, 8792.39, 993.07, 5541.62, 35416.25, 20888.55, -15493.65, 0.00, 0.00, 0.00
34, 2764.44, 5677.59, 8884.35, 1079.46, 5602.87, 35667.13, 21039.72, -15445.50, 0.00, 0.00, 0.00
35, 2683.42, 5604.19, 8907.80, 1072.95, 5561.18, 36196.37, 21531.32, -15514.12, 0.00, 0.00, 0.00
36, 2635.34, 5552.02, 8817.83, 989.94, 5490.28, 36096.28, 21522.94, -15588.93, 0.00, 0.00, 0.00
37, 2722.98, 5639.66, 8782.09, 989.36, 5532.30, 35471.50, 20938.46, -15522.15, 0.00, 0.00, 0.00
38, 2771.26, 5684.99, 8862.31, 1068.99, 5602.98, 35579.15, 20959.61, -15451.45, 0.00, 0.00, 0.00
39, 2700.07, 5619.72, 8899.03, 1069.93, 5570.57, 36118.90, 21443.95, -15511.46, 0.00, 0.00, 0.00
40, 2639.61, 5564.65, 8844.70, 997.31, 5502.28, 36189.55, 21584.70, -15583.21, 0.02, 0.96, 0.23
41, 2713.05, 5632.04, 8797.00, 969.15, 5514.02, 35552.41, 21017.10, -15542.51, 0.00, 0.00, 0.00
42, 2793.10, 5705.82, 8865.84, 1051.94, 5596.05, 35498.68, 20890.32, -15457.37, 0.00, 0.00, 0.00
43, 2740.95, 5660.67, 8920.69, 1083.81, 5588.81, 36038.59, 21361.83, -15489.11, 0.00, 0.00, 0.00
44, 2654.78, 5577.27, 8858.11, 1013.16, 5505.55, 36249.10, 21620.55, -15576.24, 0.00, 0.00, 0.00
45, 2701.16, 5623.61, 8781.84, 958.11, 5504.50, 35658.30, 21123.54, -15554.76, 0.00, 0.00, 0.00
46, 2793.57, 5709.15, 8843.42, 1029.88, 5598.31, 35443.96, 20864.08, -15457.55, 0.00, 0.00, 0.00
47, 2754.05, 5666.30, 8906.25, 1071.39, 5597.48, 35943.50, 21277.68, -15473.13, 0.00, 0.00, 0.00
48, 2655.41, 5573.12, 8859.47, 1012.22, 5518.91, 36278.36, 21634.28, -15566.33, 0.00, 0.00, 0.00
49, 2684.78, 5607.18, 8774.89, 951.09, 5499.20, 35779.04, 21242.18, -15565.55, 0.00, 0.00, 0.00
50, 2787.66, 5707.50, 8804.42, 1012.31, 5576.16, 35414.91, 20847.74, -15463.09, 0.03, 0.96, 0.23
51, 2768.87, 5681.99, 8865.75, 1071.50, 5599.42, 35844.44, 21190.37, -15460.75, 0.00, 0.00, 0.00
52, 2669.16, 5596.72, 8836.43, 1027.38, 5525.71, 36271.23, 21623.05, -15556.21, 0.00, 0.00, 0.00
53, 2668.04, 5595.74, 8745.79, 953.10, 5482.41, 35886.20, 21345.38, -15585.22, 0.00, 0.00, 0.00
54, 2769.22, 5684.96, 8761.19, 992.95, 5551.66, 35393.18, 20847.38, -15493.13, 0.00, 0.00, 0.00
55, 2772.80, 5690.62, 8831.35, 1063.00, 5591.87, 35727.65, 21085.72, -15470.13, 0.00, 0.00, 0.00
56, 2676.60, 5602.62, 8828.63, 1038.31, 5533.60, 36233.81, 21563.35, -15551.90, 0.00, 0.00, 0.00
57, 2657.09, 5588.11, 8746.66, 967.81, 5485.54, 36018.23, 21438.70, -15588.13, 0.00, 0.00, 0.00
58, 2760.57, 5687.83, 8735.20, 992.71, 5555.12, 35440.57, 20883.14, -15497.18, 0.00, 0.00, 0.00
59, 2785.83, 5707.45, 8813.16, 1064.88, 5611.25, 35648.04, 21004.38, -15453.44, 0.00, 0.00, 0.00
60, 2703.71, 5632.59, 8847.11, 1061.22, 5563.24, 36185.21, 21500.34, -15522.30, 0.03, 0.97, 0.24
61, 2654.87, 5585.34, 8771.72, 985.42, 5492.36, 36131.46, 21524.68, -15587.48, 0.00, 0.00, 0.00
62, 2739.27, 5663.44, 8731.11, 975.41, 5527.88, 35493.09, 20942.58, -15523.98, 0.00, 0.00, 0.00
63, 2793.68, 5720.57, 8809.25, 1053.64, 5603.22, 35566.63, 20937.41, -15450.44, 0.00, 0.00, 0.00
64, 2718.91, 5653.65, 8845.95, 1060.34, 5575.35, 36112.53, 21427.48, -15507.01, 0.00, 0.00, 0.00
65, 2645.64, 5583.04, 8780.26, 986.40, 5505.75, 36207.81, 21593.64, -15585.27, 0.00, 0.00, 0.00
66, 2711.45, 5642.00, 8712.31, 952.77, 5513.73, 35576.51, 21037.19, -15547.11, 0.00, 0.00, 0.00
67, 2792.56, 5717.93, 8769.33, 1037.68, 5598.28, 35489.11, 20887.30, -15455.47, 0.00, 0.00, 0.00
68, 2742.51, 5678.04, 8820.15, 1070.85, 5596.81, 36017.46, 21354.43, -15479.01, 0.00, 0.00, 0.00
69, 2655.79, 5592.36, 8762.73, 1004.62, 5516.77, 36255.55, 21632.26, -15571.57, 0.00, 0.00, 0.00
70, 2704.09, 5632.37, 8681.55, 956.90, 5516.46, 35679.78, 21154.32, -15556.12, 0.03, 0.96, 0.24
71, 2799.73, 5724.95, 8732.13, 1033.68, 5608.50, 35437.08, 20863.97, -15461.82, 0.00, 0.00, 0.00
72, 2776.65, 5710.29, 8811.86, 1091.64, 5628.66, 35932.35, 21267.95, -15467.45, 0.00, 0.00, 0.00
73, 2670.88, 5614.51, 8770.73, 1033.43, 5538.31, 36280.37, 21638.54, -15564.97, 0.00, 0.00, 0.00
74, 2695.20, 5645.56, 8701.33, 973.82, 5511.31, 35798.69, 21259.82, -15566.22, 0.00, 0.00, 0.00
75, 2799.38, 5742.70, 8744.96, 1036.58, 5598.51, 35404.38, 20845.04, -15472.46, 0.00, 0.00, 0.00
76, 2781.85, 5715.52, 8824.11, 1098.77, 5629.22, 35814.15, 21167.53, -15464.88, 0.00, 0.00, 0.00
77, 2675.79, 5611.81, 8807.24, 1063.25, 5567.33, 36257.84, 21612.15, -15555.20, 0.00, 0.00, 0.00
78, 2663.77, 5602.51, 8724.33, 990.88, 5518.76, 35911.72, 21365.85, -15586.16, 0.00, 0.00, 0.00
79, 2770.23, 5705.37, 8724.27, 1034.75, 5592.58, 35397.99, 20849.88, -15491.03, 0.00, 0.00, 0.00
80, 2786.88, 5724.08, 8796.73, 1117.34, 5645.25, 35716.45, 21065.98, -15453.97, 0.03, 0.96, 0.23
81, 2692.51, 5636.84, 8801.83, 1097.67, 5585.97, 36222.90, 21545.96, -15535.27, 0.00, 0.00, 0.00
82, 2666.38, 5612.25, 8721.27, 1025.70, 5527.94, 36026.83, 21450.21, -15585.69, 0.00, 0.00, 0.00
83, 2763.75, 5707.16, 8699.83, 1043.71, 5580.38, 35424.56, 20884.26, -15512.20, 0.00, 0.00, 0.00
84, 2800.07, 5739.66, 8774.07, 1126.59, 5638.83, 35620.99, 20979.97, -15462.24, 0.00, 0.00, 0.00
85, 2714.13, 5657.83, 8787.21, 1121.57, 5592.09, 36165.01, 21480.94, -15531.02, 0.00, 0.00, 0.00
86, 2656.91, 5605.28, 8702.32, 1044.47, 5525.51, 36127.04, 21534.16, -15600.31, 0.00, 0.00, 0.00
87, 2752.26, 5701.68, 8664.56, 1045.23, 5574.08, 35492.31, 20963.39, -15531.91, 0.00, 0.00, 0.00
88, 2812.48, 5758.66, 8741.01, 1132.70, 5647.28, 35538.54, 20931.11, -15457.68, 0.00, 0.00, 0.00
89, 2732.32, 5676.29, 8770.35, 1139.83, 5607.69, 36082.51, 21413.28, -15516.07, 0.00, 0.00, 0.00
90, 2655.12, 5602.22, 8696.15, 1067.25, 5526.65, 36202.85, 21596.72, -15596.06, 0.02, 0.96, 0.24
91, 2720.50, 5665.38, 8628.04, 1035.22, 5547.84, 35580.64, 21055.48, -15555.81, 0.00, 0.00, 0.00
92, 2796.00, 5738.68, 8678.53, 1110.52, 5628.82, 35470.74, 20882.25, -15463.00, 0.00, 0.00, 0.00
93, 2752.21, 5696.52, 8727.13, 1145.06, 5630.87, 35994.76, 21340.06, -15485.09, 0.00, 0.00, 0.00
94, 2657.87, 5611.96, 8662.93, 1070.85, 5551.59, 36247.78, 21651.20, -15578.29, 0.00, 0.00, 0.00
95, 2709.32, 5665.81, 8584.25, 1025.90, 5547.81, 35689.52, 21183.24, -15558.69, 0.00, 0.00, 0.00
96, 2803.87, 5748.44, 8633.34, 1099.88, 5631.10, 35418.80, 20868.75, -15464.55, 0.00, 0.00, 0.00
97, 2773.36, 5722.09, 8694.43, 1148.97, 5638.14, 35889.48, 21246.88, -15478.11, 0.00, 0.00, 0.00
98, 2675.01, 5633.33, 8655.22, 1098.07, 5561.99, 36264.09, 21630.50, -15565.58, 0.00, 0.00, 0.00
99, 2693.47, 5649.38, 8560.85, 1034.91, 5541.44, 35807.40, 21276.29, -15569.71, 0.00, 0.00, 0.00
100, 2790.70, 5739.08, 8570.80, 1082.70, 5619.47, 35387.41, 20837.93, -15477.62, 0.02, 0.96, 0.24
101, 2782.64, 5736.22, 8646.28, 1149.01, 5646.30, 35783.67, 21145.96, -15461.91, 0.00, 0.00, 0.00
102, 2688.87, 5648.91, 8630.08, 1113.77, 5574.30, 36243.17, 21597.82, -15546.82, 0.00, 0.00, 0.00
103, 2681.20, 5640.55, 8528.49, 1034.42, 5524.70, 35921.80, 21379.55, -15583.66, 0.00, 0.00, 0.00
104, 2777.76, 5729.42, 8525.20, 1067.18, 5592.43, 35382.83, 20857.71, -15498.10, 0.00, 0.00, 0.00
105, 2793.03, 5744.22, 8611.37, 1151.45, 5648.42, 35682.68, 21061.53, -15454.38, 0.00, 0.00, 0.00
106, 2699.42, 5657.07, 8615.03, 1132.21, 5586.04, 36204.44, 21552.02, -15534.01, 0.00, 0.00, 0.00
107, 2660.06, 5619.30, 8512.84, 1046.53, 5510.89, 36035.91, 21470.04, -15597.63, 0.00, 0.00, 0.00
108, 2772.96, 5730.83, 8493.48, 1072.50, 5572.92, 35435.92, 20893.70, -15510.81, 0.00, 0.00, 0.00
109, 2815.72, 5769.72, 8568.94, 1156.14, 5637.11, 35605.57, 20982.95, -15456.75, 0.02, 0.96, 0.24
110, 2736.30, 5693.46, 8583.61, 1150.87, 5603.38, 36146.05, 21477.23, -15524.22, 0.00, 0.00, 0.00
111, 2679.08, 5645.56, 8500.79, 1074.40, 5536.93, 36149.09, 21567.31, -15592.96, 0.00, 0.00, 0.00
112, 2764.15, 5721.06, 8449.76, 1058.82, 5560.85, 35513.52, 20994.08, -15528.83, 0.00, 0.00, 0.00
113, 2820.30, 5773.77, 8511.75, 1134.46, 5627.88, 35525.82, 20926.44, -15455.69, 0.00, 0.00, 0.00
114, 2761.71, 5720.62, 8557.83, 1158.96, 5618.36, 36068.96, 21409.24, -15499.06, 0.00, 0.00, 0.00
115, 2675.91, 5641.42, 8491.16, 1084.39, 5537.38, 36217.94, 21617.38, -15586.70, 0.00, 0.00, 0.00
116, 2736.52, 5698.49, 8429.16, 1047.51, 5545.62, 35594.32, 21084.73, -15551.25, 0.00, 0.00, 0.00
117, 2822.49, 5783.27, 8491.67, 1128.34, 5629.78, 35456.44, 20879.23, -15457.21, 0.00, 0.00, 0.00
118, 2774.90, 5748.04, 8542.23, 1164.24, 5626.00, 35978.04, 21318.18, -15481.85, 0.00, 0.00, 0.00
119, 2683.19, 5654.63, 8486.33, 1099.88, 5548.73, 36259.33, 21632.20, -15571.14, 0.03, 0.96, 0.23
120, 2727.20, 5688.14, 8405.69, 1052.72, 5540.19, 35718.82, 21184.74, -15555.72, 0.00, 0.00, 0.00
121, 2818.98, 5775.71, 8440.26, 1115.73, 5614.24, 35421.43, 20855.23, -15462.85, 0.00, 0.00, 0.00
122, 2787.84, 5750.30, 8495.18, 1163.43, 5625.89, 35879.49, 21230.18, -15474.42, 0.00, 0.00, 0.00
123, 2679.97, 5652.64, 8450.39, 1109.23, 5546.27, 36264.12, 21628.11, -15575.66, 0.00, 0.00, 0.00
124, 2693.70, 5666.23, 8365.65, 1048.72, 5519.23, 35837.11, 21299.11, -15579.10, 0.00, 0.00, 0.00
125, 2797.79, 5764.02, 8383.71, 1101.45, 5597.50, 35401.65, 20847.34, -15483.08, 0.00, 0.00, 0.00
126, 2791.80, 5760.58, 8445.99, 1161.08, 5636.71, 35771.26, 21131.45, -15470.00, 0.00, 0.00, 0.00
127, 2696.65, 5675.85, 8433.76, 1126.37, 5574.52, 36241.32, 21591.96, -15557.73, 0.00, 0.00, 0.00
128, 2678.86, 5655.04, 8354.32, 1043.63, 5516.16, 35955.51, 21398.58, -15602.43, 0.00, 0.00, 0.00
129, 2778.19, 5740.33, 8364.31, 1075.86, 5582.64, 35416.43, 20874.99, -15512.54, 0.03, 0.97, 0.23
130, 2809.75, 5775.22, 8456.87, 1162.98, 5640.51, 35685.97, 21050.78, -15459.27, 0.00, 0.00, 0.00
131, 2715.63, 5686.91, 8460.78, 1136.85, 5580.63, 36202.40, 21536.42, -15547.90, 0.00, 0.00, 0.00
132, 2667.52, 5641.96, 8363.96, 1051.45, 5514.53, 36059.93, 21487.94, -15605.38, 0.00, 0.00, 0.00
133, 2764.71, 5740.62, 8316.44, 1067.07, 5570.46, 35452.41, 20916.54, -15519.75, 0.00, 0.00, 0.00
134, 2804.21, 5773.95, 8359.80, 1143.05, 5637.87, 35587.62, 20975.81, -15460.68, 0.00, 0.00, 0.00
135, 2728.50, 5704.46, 8396.75, 1147.18, 5600.94, 36135.04, 21473.48, -15519.17, 0.00, 0.00, 0.00
136, 2661.71, 5642.61, 8324.08, 1071.52, 5521.98, 36167.31, 21577.79, -15591.95, 0.00, 0.00, 0.00
137, 2746.52, 5721.93, 8278.88, 1060.95, 5557.72, 35539.52, 21015.69, -15530.42, 0.00, 0.00, 0.00
138, 2803.85, 5775.04, 8338.99, 1134.02, 5632.89, 35526.33, 20927.33, -15454.60, 0.00, 0.00, 0.00
139, 2749.31, 5726.72, 8384.83, 1162.63, 5629.04, 36066.80, 21400.65, -15481.71, 0.03, 0.96, 0.24
140, 2659.54, 5644.66, 8313.28, 1081.65, 5539.12, 36243.22, 21632.13, -15571.50, 0.00, 0.00, 0.00
141, 2712.92, 5699.90, 8245.09, 1035.91, 5542.25, 35631.05, 21112.32, -15546.22, 0.00, 0.00, 0.00
142, 2799.38, 5782.40, 8296.25, 1109.00, 5627.10, 35450.31, 20887.95, -15456.88, 0.00, 0.00, 0.00
143, 2758.56, 5751.01, 8346.41, 1149.77, 5620.88, 35957.50, 21318.15, -15475.95, 0.00, 0.00, 0.00
144, 2663.48, 5662.43, 8290.89, 1087.55, 5540.93, 36266.35, 21649.18, -15569.53, 0.00, 0.00, 0.00
145, 2704.18, 5691.85, 8222.18, 1040.23, 5540.13, 35748.62, 21219.94, -15553.13, 0.00, 0.00, 0.00
146, 2802.89, 5782.53, 8265.03, 1109.63, 5620.88, 35419.29, 20861.06, -15457.15, 0.00, 0.00, 0.00
147, 2780.04, 5764.00, 8326.67, 1165.40, 5636.73, 35865.21, 21216.83, -15460.57, 0.00, 0.00, 0.00
148, 2678.10, 5663.93, 8292.14, 1120.11, 5559.30, 36271.92, 21626.32, -15552.16, 0.00, 0.00, 0.00
149, 2679.04, 5663.13, 8201.59, 1049.97, 5515.63, 35868.38, 21324.14, -15576.46, 0.03, 0.96, 0.24
150, 2782.34, 5761.45, 8215.25, 1101.02, 5587.27, 35397.74, 20849.35, -15483.99, 0.00, 0.00, 0.00
151, 2794.71, 5774.77, 8292.34, 1176.77, 5631.43, 35760.06, 21117.59, -15451.89, 0.00, 0.00, 0.00
152, 2701.74, 5693.06, 8287.45, 1146.85, 5575.33, 36254.24, 21606.25, -15535.31, 0.00, 0.00, 0.00
153, 2679.93, 5670.19, 8197.17, 1063.47, 5519.56, 35986.89, 21438.90, -15586.68, 0.00, 0.00, 0.00
154, 2787.06, 5768.94, 8197.70, 1087.70, 5584.31, 35421.39, 20894.50, -15494.70, 0.00, 0.00, 0.00
155, 2814.60, 5799.09, 8271.96, 1163.48, 5641.56, 35671.08, 21058.20, -15446.46, 0.00, 0.00, 0.00
156, 2724.21, 5715.77, 8275.26, 1147.45, 5589.23, 36195.88, 21554.30, -15525.68, 0.00, 0.00, 0.00
157, 2679.33, 5666.46, 8191.15, 1065.75, 5516.30, 36088.21, 21530.16, -15591.28, 0.00, 0.00, 0.00
158, 2772.69, 5755.66, 8164.71, 1071.41, 5563.80, 35460.13, 20943.65, -15518.59, 0.00, 0.00, 0.00
159, 2824.28, 5810.40, 8238.83, 1158.31, 5636.82, 35577.96, 20972.31, -15449.32, 0.04, 0.96, 0.25
160, 2748.28, 5743.19, 8266.37, 1168.10, 5606.44, 36129.47, 21475.38, -15507.24, 0.00, 0.00, 0.00
161, 2676.26, 5669.39, 8190.91, 1091.88, 5529.44, 36183.38, 21592.68, -15586.30, 0.00, 0.00, 0.00
162, 2751.54, 5737.04, 8142.83, 1073.64, 5558.41, 35551.16, 21018.60, -15534.53, 0.00, 0.00, 0.00
163, 2818.09, 5806.18, 8204.16, 1153.60, 5633.00, 35510.42, 20906.28, -15452.25, 0.00, 0.00, 0.00
164, 2759.35, 5760.13, 8239.75, 1176.08, 5615.79, 36046.21, 21374.19, -15489.80, 0.00, 0.00, 0.00
165, 2659.50, 5652.26, 8162.32, 1093.96, 5530.56, 36242.23, 21624.22, -15589.54, 0.00, 0.00, 0.00
166, 2713.84, 5697.86, 8089.95, 1050.11, 5540.28, 35641.02, 21113.30, -15567.48, 0.00, 0.00, 0.00
167, 2807.87, 5791.20, 8144.62, 1125.88, 5631.37, 35440.52, 20863.03, -15465.60, 0.00, 0.00, 0.00
168, 2775.17, 5764.45, 8203.18, 1173.71, 5635.50, 35944.80, 21286.28, -15474.69, 0.00, 0.00, 0.00
169, 2675.48, 5670.06, 8155.91, 1110.39, 5549.36, 36270.89, 21640.02, -15570.49, 0.03, 0.96, 0.24
170, 2702.91, 5696.54, 8073.41, 1047.58, 5529.78, 35768.07, 21237.38, -15570.45, 0.00, 0.00, 0.00
171, 2803.71, 5791.96, 8108.79, 1110.55, 5612.72, 35417.84, 20858.20, -15471.70, 0.00, 0.00, 0.00
172, 2793.23, 5784.21, 8176.92, 1174.05, 5640.71, 35852.40, 21208.29, -15465.26, 0.00, 0.00, 0.00
173, 2683.73, 5683.24, 8135.23, 1114.77, 5558.34, 36266.35, 21630.36, -15562.31, 0.00, 0.00, 0.00
174, 2686.50, 5688.36, 8058.63, 1042.64, 5522.94, 35882.10, 21350.12, -15583.84, 0.00, 0.00, 0.00
175, 2797.43, 5796.54, 8093.86, 1094.50, 5601.26, 35405.86, 20864.48, -15486.05, 0.00, 0.00, 0.00
176, 2807.54, 5811.77, 8175.11, 1169.55, 5644.78, 35758.57, 21117.30, -15454.58, 0.00, 0.00, 0.00
177, 2705.50, 5712.90, 8169.20, 1139.54, 5581.03, 36252.92, 21586.78, -15538.57, 0.00, 0.00, 0.00
178, 2673.34, 5679.04, 8090.30, 1059.94, 5524.19, 36023.97, 21455.28, -15587.19, 0.00, 0.00, 0.00
179, 2776.78, 5780.25, 8088.05, 1082.63, 5582.46, 35439.41, 20898.72, -15502.57, 0.03, 0.96, 0.24
180, 2796.67, 5803.32, 8161.47, 1152.77, 5630.90, 35656.93, 21025.03, -15463.07, 0.00, 0.00, 0.00
181, 2706.10, 5713.06, 8180.18, 1142.60, 5588.36, 36191.83, 21515.23, -15535.71, 0.00, 0.00, 0.00
182, 2661.65, 5673.16, 8105.39, 1064.30, 5530.40, 36118.41, 21525.53, -15601.61, 0.00, 0.00, 0.00
183, 2756.71, 5767.00, 8089.27, 1062.38, 5565.32, 35488.38, 20944.66, -15532.38, 0.00, 0.00, 0.00
184, 2812.63, 5809.93, 8169.83, 1141.08, 5629.78, 35566.50, 20943.05, -15461.95, 0.00, 0.00, 0.00
185, 2752.04, 5747.26, 8215.92, 1159.97, 5614.85, 36125.78, 21443.79, -15503.71, 0.00, 0.00, 0.00
186, 2672.46, 5673.27, 8136.57, 1070.72, 5530.67, 36210.34, 21588.28, -15593.52, 0.00, 0.00, 0.00
187, 2738.63, 5740.73, 8067.57, 1033.81, 5543.90, 35562.41, 21024.72, -15560.21, 0.00, 0.00, 0.00
188, 2816.34, 5816.39, 8134.20, 1113.65, 5632.53, 35485.27, 20887.39, -15474.58, 0.00, 0.00, 0.00
189, 2760.06, 5765.72, 8191.15, 1139.09, 5624.15, 36022.65, 21353.94, -15509.20, 0.03, 0.96, 0.24
190, 2669.25, 5680.09, 8136.50, 1069.11, 5538.25, 36248.29, 21627.35, -15590.88, 0.00, 0.00, 0.00
191, 2717.01, 5730.25, 8066.57, 1021.99, 5536.77, 35659.61, 21138.16, -15565.20, 0.00, 0.00, 0.00
192, 2802.64, 5803.59, 8118.18, 1090.25, 5619.25, 35419.98, 20860.68, -15478.56, 0.00, 0.00, 0.00
193, 2771.10, 5774.44, 8191.11, 1140.59, 5631.37, 35920.73, 21266.86, -15485.53, 0.00, 0.00, 0.00
194, 2674.99, 5684.27, 8159.71, 1087.88, 5563.53, 36278.47, 21642.70, -15575.43, 0.00, 0.00, 0.00
195, 2693.90, 5701.46, 8074.46, 1023.40, 5536.86, 35792.56, 21262.48, -15578.41, 0.00, 0.00, 0.00
196, 2794.71, 5795.94, 8110.20, 1087.12, 5607.29, 35414.21, 20849.84, -15477.15, 0.00, 0.00, 0.00
197, 2787.51, 5795.56, 8185.23, 1154.60, 5635.03, 35842.36, 21172.80, -15463.07, 0.00, 0.00, 0.00
198, 2683.35, 5698.64, 8147.48, 1105.87, 5562.66, 36282.33, 21613.00, -15560.14, 0.03, 0.97, 0.24
199, 2680.00, 5695.51, 8047.83, 1028.98, 5522.58, 35919.90, 21364.67, -15585.67, 0.00, 0.00, 0.00
200, 2782.26, 5791.07, 8052.86, 1064.68, 5591.58, 35404.07, 20869.29, -15492.96, 0.00, 0.00, 0.00
201, 2792.52, 5803.47, 8131.07, 1132.59, 5633.09, 35722.16, 21092.98, -15461.64, 0.00, 0.00, 0.00
202, 2700.11, 5717.11, 8133.22, 1111.19, 5577.12, 36230.32, 21575.85, -15544.27, 0.00, 0.00, 0.00
203, 2671.03, 5689.68, 8044.08, 1033.41, 5522.74, 36028.39, 21469.92, -15592.78, 0.00, 0.00, 0.00
204, 2771.75, 5791.27, 8026.94, 1047.54, 5588.00, 35434.18, 20912.22, -15507.51, 0.00, 0.00, 0.00
205, 2807.58, 5823.99, 8090.82, 1124.27, 5641.65, 35629.53, 21019.04, -15454.82, 0.00, 0.00, 0.00
206, 2721.17, 5738.05, 8107.85, 1121.23, 5589.52, 36173.19, 21516.48, -15523.96, 0.00, 0.00, 0.00
