%OpenBCI Raw EEG Data
%
%Sample Rate = 250.0 Hz
%First Column = SampleIndex
%Other Columns = EEG data in microvolts followed by Accel Data (in G) interleaved with Aux Data
0, 1834.63, 11332.09, 32832.63, 9172.66, 21104.23, 77790.84, 43447.03, 19236.38, 0.05, 0.97, 0.17
1, 1918.65, 11416.22, 32780.87, 9211.85, 21151.46, 76466.52, 42985.96, 19215.82, 0.00, 0.00, 0.00
2, 1994.85, 11479.52, 32890.34, 9293.14, 21246.81, 74847.27, 42936.94, 19306.34, 0.00, 0.00, 0.00
3, 1914.18, 11400.62, 32948.32, 9246.40, 21193.95, 75838.73, 43324.03, 19316.00, 0.00, 0.00, 0.00
4, 1819.88, 11305.36, 32879.84, 9160.17, 21101.01, 77669.60, 43489.45, 19237.63, 0.00, 0.00, 0.00
5, 1882.04, 11367.27, 32778.18, 9192.58, 21126.53, 76839.84, 43060.19, 19204.62, 0.00, 0.00, 0.00
6, 1984.14, 11463.29, 32819.27, 9285.79, 21226.04, 74929.93, 42887.09, 19287.12, 0.00, 0.00, 0.00
7, 1940.49, 11427.91, 32881.63, 9267.84, 21216.34, 75497.46, 43238.31, 19311.88, 0.02, 0.98, 0.11
8, 1829.58, 11327.06, 32843.83, 9175.73, 21106.21, 77458.42, 43489.81, 19244.67, 0.00, 0.00, 0.00
9, 1875.27, 11367.96, 32762.98, 9189.54, 21111.20, 77202.45, 43140.95, 19199.72, 0.00, 0.00, 0.00
10, 1981.91, 11462.76, 32805.39, 9282.34, 21210.33, 75134.90, 42856.88, 19264.37, 0.00, 0.00, 0.00
11, 1953.97, 11433.19, 32882.97, 9276.33, 21210.15, 75238.12, 43159.96, 19305.47, 0.00, 0.00, 0.00
12, 1848.27, 11340.51, 32867.68, 9190.54, 21124.25, 77186.92, 43477.41, 19251.04, 0.00, 0.00, 0.00
13, 1851.10, 11343.08, 32774.41, 9174.50, 21101.83, 77505.41, 43226.51, 19187.36, 0.00, 0.00, 0.00
14, 1971.38, 11465.01, 32784.26, 9271.68, 21220.32, 75421.06, 42854.84, 19243.98, 0.00, 0.00, 0.00
15, 1971.67, 11457.82, 32864.55, 9294.12, 21259.06, 75023.70, 43090.70, 19305.67, 0.00, 0.00, 0.00
16, 1864.78, 11355.42, 32850.07, 9208.23, 21152.08, 76854.52, 43462.32, 19263.58, 0.00, 0.00, 0.00
17, 1838.12, 11326.14, 32740.10, 9154.85, 21084.31, 77679.57, 43323.42, 19181.42, 0.02, 0.98, 0.12
18, 1962.66, 11442.06, 32711.24, 9240.57, 21180.47, 75742.15, 42891.68, 19221.43, 0.00, 0.00, 0.00
19, 1994.98, 11477.24, 32786.16, 9282.05, 21231.12, 74875.13, 43033.01, 19290.96, 0.00, 0.00, 0.00
20, 1888.52, 11380.79, 32798.66, 9204.47, 21158.85, 76485.05, 43429.04, 19266.06, 0.00, 0.00, 0.00
21, 1819.07, 11313.45, 32680.78, 9118.97, 21079.79, 77791.71, 43396.43, 19171.16, 0.00, 0.00, 0.00
22, 1930.54, 11413.25, 32605.63, 9185.92, 21155.90, 76139.27, 42921.63, 19182.22, 0.00, 0.00, 0.00
23, 2003.70, 11481.40, 32685.13, 9267.10, 21256.42, 74837.04, 42980.82, 19284.71, 0.00, 0.00, 0.00
24, 1908.97, 11398.25, 32722.48, 9204.58, 21198.95, 76119.09, 43365.42, 19265.53, 0.00, 0.00, 0.00
25, 1828.73, 11328.78, 32665.78, 9117.90, 21092.36, 77776.52, 43449.06, 19180.52, 0.00, 0.00, 0.00
26, 1924.55, 11416.40, 32636.36, 9171.57, 21142.63, 76557.43, 42989.13, 19174.00, 0.02, 0.97, 0.12
27, 2006.38, 11487.99, 32748.77, 9249.31, 21226.49, 74845.98, 42902.96, 19259.36, 0.00, 0.00, 0.00
28, 1933.34, 11424.62, 32815.06, 9206.04, 21188.78, 75754.82, 43283.84, 19262.82, 0.00, 0.00, 0.00
29, 1831.86, 11324.87, 32741.35, 9112.87, 21090.17, 77641.17, 43472.13, 19185.04, 0.00, 0.00, 0.00
30, 1895.70, 11380.90, 32654.42, 9140.16, 21115.00, 76950.33, 43060.32, 19155.94, 0.00, 0.00, 0.00
31, 1987.70, 11470.00, 32696.13, 9228.77, 21205.97, 74986.30, 42860.09, 19232.85, 0.00, 0.00, 0.00
32, 1945.52, 11439.94, 32772.66, 9218.93, 21191.82, 75445.77, 43209.30, 19264.95, 0.00, 0.00, 0.00
33, 1835.57, 11334.66, 32736.45, 9126.84, 21095.98, 77430.06, 43483.06, 19197.38, 0.00, 0.00, 0.00
34, 1864.76, 11357.73, 32632.47, 9128.16, 21095.78, 77296.94, 43152.99, 19143.38, 0.00, 0.00, 0.00
35, 1975.58, 11464.34, 32619.96, 9218.24, 21184.92, 75203.07, 42840.98, 19205.02, 0.00, 0.00, 0.00
36, 1948.65, 11437.99, 32651.52, 9215.83, 21187.33, 75183.11, 43119.80, 19247.31, 0.03, 0.98, 0.12
37, 1843.62, 11350.26, 32618.35, 9138.73, 21111.40, 77138.62, 43466.30, 19194.52, 0.00, 0.00, 0.00
38, 1850.08, 11353.68, 32515.55, 9123.04, 21090.30, 77583.55, 43238.42, 19140.33, 0.00, 0.00, 0.00
39, 1971.76, 11455.85, 32513.36, 9214.64, 21185.56, 75517.69, 42847.96, 19202.83, 0.00, 0.00, 0.00
40, 1967.80, 11456.88, 32584.64, 9235.11, 21211.09, 74996.83, 43048.48, 19254.42, 0.00, 0.00, 0.00
41, 1861.07, 11363.31, 32582.16, 9156.66, 21139.85, 76794.73, 43431.81, 19215.19, 0.00, 0.00, 0.00
42, 1832.93, 11329.34, 32471.34, 9112.00, 21083.68, 77763.23, 43323.74, 19141.81, 0.00, 0.00, 0.00
43, 1957.01, 11450.15, 32431.35, 9208.99, 21165.89, 75887.48, 42878.73, 19181.55, 0.00, 0.00, 0.00
44, 1979.58, 11484.19, 32471.61, 9264.28, 21225.04, 74908.72, 42991.86, 19254.66, 0.00, 0.00, 0.00
45, 1868.49, 11378.24, 32487.01, 9187.21, 21152.33, 76468.35, 43381.23, 19226.72, 0.00, 0.00, 0.00
46, 1807.83, 11318.25, 32398.38, 9114.86, 21080.33, 77864.16, 43389.70, 19143.93, 0.02, 0.99, 0.12
47, 1918.36, 11425.03, 32352.03, 9183.86, 21136.21, 76308.67, 42927.42, 19150.35, 0.00, 0.00, 0.00
48, 1976.70, 11481.96, 32427.31, 9255.77, 21207.27, 74893.95, 42937.59, 19234.64, 0.00, 0.00, 0.00
49, 1876.29, 11396.37, 32449.84, 9191.26, 21145.33, 76123.76, 43321.81, 19222.59, 0.00, 0.00, 0.00
50, 1792.88, 11325.25, 32343.85, 9110.08, 21067.59, 77842.96, 43444.75, 19150.62, 0.00, 0.00, 0.00
51, 1872.09, 11401.65, 32240.91, 9152.32, 21113.59, 76725.31, 43008.46, 19129.27, 0.00, 0.00, 0.00
52, 1961.10, 11499.97, 32279.07, 9244.61, 21212.27, 74956.59, 42911.08, 19213.49, 0.00, 0.00, 0.00
53, 1891.78, 11436.11, 32311.77, 9208.61, 21177.23, 75757.37, 43279.21, 19226.95, 0.00, 0.00, 0.00
54, 1792.63, 11321.34, 32251.87, 9123.74, 21085.54, 77691.55, 43496.11, 19163.20, 0.00, 0.00, 0.00
55, 1845.61, 11366.96, 32171.78, 9146.40, 21105.28, 77141.41, 43101.65, 19120.06, 0.00, 0.00, 0.00
56, 1952.94, 11472.66, 32224.98, 9239.27, 21202.60, 75118.96, 42862.35, 19195.65, 0.01, 0.98, 0.12
57, 1913.11, 11441.81, 32299.03, 9221.90, 21190.26, 75474.40, 43194.66, 19227.17, 0.00, 0.00, 0.00
58, 1810.25, 11349.39, 32274.89, 9130.82, 21111.94, 77473.18, 43487.02, 19167.92, 0.00, 0.00, 0.00
59, 1836.73, 11380.48, 32193.17, 9116.54, 21104.67, 77471.23, 43176.82, 19113.24, 0.00, 0.00, 0.00
60, 1952.94, 11492.60, 32222.45, 9202.86, 21190.55, 75363.24, 42845.99, 19176.16, 0.00, 0.00, 0.00
61, 1939.86, 11474.92, 32313.22, 9210.68, 21205.08, 75232.82, 43123.91, 19228.00, 0.00, 0.00, 0.00
62, 1823.68, 11368.03, 32296.88, 9117.01, 21119.78, 77176.86, 43474.10, 19174.69, 0.00, 0.00, 0.00
63, 1811.01, 11350.57, 32194.22, 9083.19, 21086.86, 77752.89, 43273.07, 19109.98, 0.00, 0.00, 0.00
64, 1936.35, 11464.90, 32198.04, 9179.28, 21177.61, 75696.77, 42868.54, 19156.90, 0.00, 0.00, 0.00
65, 1932.84, 11464.54, 32277.48, 9193.70, 21191.20, 75070.50, 43054.87, 19201.78, 0.00, 0.00, 0.00
66, 1824.95, 11366.00, 32289.26, 9114.35, 21124.50, 76837.12, 43439.45, 19167.54, 0.02, 0.99, 0.12
67, 1794.44, 11337.52, 32183.14, 9072.89, 21082.54, 77905.66, 43358.16, 19107.86, 0.00, 0.00, 0.00
68, 1915.46, 11456.83, 32144.06, 9151.50, 21148.62, 76065.27, 42903.17, 19129.83, 0.00, 0.00, 0.00
69, 1947.31, 11495.61, 32214.81, 9195.46, 21190.26, 74961.69, 42991.70, 19196.46, 0.00, 0.00, 0.00
70, 1855.28, 11414.10, 32251.53, 9141.10, 21132.21, 76457.73, 43400.52, 19184.46, 0.00, 0.00, 0.00
71, 1783.62, 11329.72, 32184.70, 9073.80, 21060.37, 77954.01, 43427.72, 19103.32, 0.00, 0.00, 0.00
72, 1894.27, 11428.51, 32150.05, 9150.92, 21146.16, 76481.16, 42962.67, 19113.56, 0.00, 0.00, 0.00
73, 1956.60, 11504.33, 32234.46, 9217.26, 21226.18, 74976.87, 42948.07, 19193.71, 0.00, 0.00, 0.00
74, 1878.57, 11440.76, 32302.43, 9164.62, 21166.50, 76099.82, 43333.01, 19196.93, 0.00, 0.00, 0.00
75, 1789.32, 11364.77, 32238.86, 9075.88, 21075.73, 77879.31, 43465.56, 19113.29, 0.00, 0.00, 0.00
76, 1863.15, 11410.21, 32167.82, 9106.73, 21115.02, 76894.42, 43021.34, 19086.62, 0.02, 0.99, 0.13
77, 1952.96, 11483.63, 32229.87, 9185.47, 21195.73, 75052.26, 42879.27, 19168.95, 0.00, 0.00, 0.00
78, 1893.42, 11433.68, 32296.21, 9150.45, 21169.65, 75764.25, 43247.16, 19188.70, 0.00, 0.00, 0.00
79, 1791.69, 11338.50, 32246.28, 9051.54, 21078.07, 77719.49, 43482.12, 19118.65, 0.00, 0.00, 0.00
80, 1841.43, 11392.37, 32143.55, 9066.25, 21098.55, 77273.95, 43107.30, 19076.59, 0.00, 0.00, 0.00
81, 1952.49, 11501.42, 32175.25, 9163.46, 21196.07, 75229.91, 42868.45, 19151.51, 0.00, 0.00, 0.00
82, 1919.37, 11472.75, 32239.87, 9153.17, 21189.39, 75474.06, 43187.97, 19186.33, 0.00, 0.00, 0.00
83, 1803.20, 11366.04, 32208.84, 9059.18, 21084.38, 77473.11, 43492.65, 19120.04, 0.00, 0.00, 0.00
84, 1821.47, 11376.05, 32117.98, 9046.85, 21077.38, 77607.29, 43203.17, 19058.84, 0.00, 0.00, 0.00
85, 1939.62, 11484.95, 32139.44, 9138.98, 21185.79, 75499.97, 42857.46, 19120.24, 0.00, 0.00, 0.00
86, 1926.03, 11475.81, 32223.59, 9151.09, 21189.32, 75273.03, 43109.34, 19170.76, 0.02, 0.98, 0.12
87, 1814.43, 11371.94, 32221.69, 9062.69, 21091.64, 77186.56, 43460.71, 19128.09, 0.00, 0.00, 0.00
88, 1805.78, 11356.14, 32135.48, 9027.11, 21059.88, 77871.62, 43283.57, 19061.32, 0.00, 0.00, 0.00
89, 1928.08, 11481.15, 32148.71, 9119.40, 21159.08, 75838.95, 42863.04, 19103.41, 0.00, 0.00, 0.00
90, 1947.55, 11501.87, 32250.28, 9158.78, 21198.04, 75113.95, 43034.71, 19175.47, 0.00, 0.00, 0.00
91, 1835.10, 11393.31, 32264.72, 9074.23, 21113.75, 76836.80, 43416.21, 19136.71, 0.00, 0.00, 0.00
92, 1785.79, 11348.27, 32171.49, 9010.81, 21060.01, 78015.43, 43351.77, 19056.69, 0.00, 0.00, 0.00
93, 1894.38, 11456.25, 32149.99, 9076.69, 21152.39, 76238.06, 42884.26, 19075.51, 0.00, 0.00, 0.00
94, 1949.59, 11510.16, 32248.65, 9143.25, 21210.66, 75032.70, 42966.82, 19164.92, 0.00, 0.00, 0.00
95, 1853.09, 11423.26, 32278.67, 9076.84, 21133.15, 76459.15, 43365.80, 19143.71, 0.00, 0.00, 0.00
96, 1772.76, 11350.53, 32192.34, 8997.11, 21062.27, 78019.97, 43415.09, 19059.62, 0.01, 0.98, 0.12
97, 1878.06, 11456.83, 32160.22, 9074.00, 21130.85, 76652.16, 42963.05, 19068.43, 0.00, 0.00, 0.00
98, 1952.49, 11549.73, 32240.11, 9155.45, 21205.52, 75056.24, 42926.88, 19153.30, 0.00, 0.00, 0.00
99, 1862.53, 11443.96, 32276.88, 9103.19, 21158.00, 76107.20, 43318.51, 19152.67, 0.00, 0.00, 0.00
100, 1768.00, 11340.20, 32225.87, 9018.50, 21071.73, 77948.58, 43480.24, 19080.23, 0.00, 0.00, 0.00
101, 1839.30, 11418.19, 32151.89, 9048.99, 21105.61, 77074.96, 43048.63, 19052.25, 0.00, 0.00, 0.00
102, 1937.43, 11508.73, 32215.66, 9136.30, 21200.49, 75163.86, 42887.81, 19134.34, 0.00, 0.00, 0.00
103, 1877.52, 11469.82, 32287.00, 9105.45, 21178.97, 75787.79, 43242.31, 19150.15, 0.00, 0.00, 0.00
104, 1762.68, 11367.63, 32249.14, 9003.21, 21063.50, 77777.20, 43492.83, 19078.06, 0.00, 0.00, 0.00
105, 1806.33, 11391.37, 32173.86, 9013.05, 21067.99, 77457.69, 43124.31, 19034.19, 0.02, 0.98, 0.12
106, 1915.95, 11500.49, 32221.29, 9106.41, 21171.86, 75379.55, 42853.79, 19106.34, 0.00, 0.00, 0.00
107, 1885.93, 11480.55, 32300.97, 9100.56, 21175.35, 75523.21, 43153.39, 19144.47, 0.00, 0.00, 0.00
108, 1771.04, 11372.46, 32282.98, 9002.59, 21081.99, 77528.01, 43466.92, 19088.03, 0.00, 0.00, 0.00
109, 1786.26, 11392.44, 32193.51, 8984.13, 21058.83, 77788.18, 43199.95, 19029.89, 0.00, 0.00, 0.00
110, 1903.14, 11501.04, 32213.58, 9077.40, 21157.51, 75666.06, 42828.51, 19084.14, 0.00, 0.00, 0.00
111, 1896.01, 11497.09, 32306.83, 9097.74, 21191.64, 75299.00, 43070.43, 19142.28, 0.00, 0.00, 0.00
112, 1782.55, 11393.44, 32302.43, 9010.84, 21108.16, 77191.26, 43442.34, 19096.53, 0.00, 0.00, 0.00
113, 1771.11, 11388.88, 32235.26, 8987.55, 21059.16, 77998.45, 43295.75, 19032.93, 0.00, 0.00, 0.00
114, 1891.47, 11503.35, 32232.85, 9075.21, 21152.75, 76012.94, 42869.15, 19074.84, 0.00, 0.00, 0.00
115, 1905.33, 11505.00, 32307.57, 9109.45, 21183.31, 75170.48, 43021.74, 19137.63, 0.02, 0.98, 0.13
116, 1792.10, 11392.08, 32317.25, 9024.61, 21098.39, 76836.91, 43408.41, 19098.13, 0.00, 0.00, 0.00
117, 1753.76, 11361.70, 32248.78, 8972.59, 21072.02, 78130.37, 43385.38, 19029.45, 0.00, 0.00, 0.00
118, 1866.62, 11471.54, 32222.77, 9048.12, 21167.73, 76429.71, 42923.46, 19054.73, 0.00, 0.00, 0.00
119, 1910.90, 11524.20, 32303.86, 9099.55, 21217.97, 75119.92, 42967.79, 19130.50, 0.00, 0.00, 0.00
120, 1818.02, 11438.24, 32344.69, 9037.21, 21139.21, 76466.09, 43360.48, 19111.10, 0.00, 0.00, 0.00
121, 1743.28, 11360.41, 32285.22, 8961.55, 21055.52, 78114.90, 43434.45, 19038.84, 0.00, 0.00, 0.00
122, 1834.45, 11443.71, 32231.28, 9010.23, 21113.10, 76841.47, 42967.11, 19031.75, 0.00, 0.00, 0.00
123, 1915.39, 11532.40, 32322.50, 9094.32, 21205.75, 75157.41, 42909.16, 19126.34, 0.00, 0.00, 0.00
124, 1831.35, 11463.78, 32384.73, 9044.45, 21156.44, 76123.52, 43284.18, 19120.66, 0.00, 0.00, 0.00
125, 1728.30, 11366.00, 32340.87, 8957.86, 21069.45, 78018.85, 43460.93, 19040.69, 0.02, 0.98, 0.13
126, 1802.58, 11427.53, 32272.21, 8995.19, 21121.79, 77275.12, 43054.00, 19019.95, 0.00, 0.00, 0.00
127, 1900.55, 11529.01, 32326.66, 9086.21, 21206.80, 75305.64, 42870.73, 19105.11, 0.00, 0.00, 0.00
128, 1851.95, 11485.31, 32407.03, 9062.45, 21189.25, 75813.05, 43218.53, 19130.59, 0.00, 0.00, 0.00
129, 1734.41, 11355.74, 32375.27, 8952.12, 21072.15, 77819.67, 43478.32, 19051.87, 0.00, 0.00, 0.00
130, 1770.95, 11389.46, 32299.70, 8946.80, 21072.64, 77636.16, 43131.47, 18997.84, 0.00, 0.00, 0.00
131, 1886.98, 11504.26, 32361.28, 9039.85, 21177.92, 75515.84, 42836.87, 19069.75, 0.00, 0.00, 0.00
132, 1857.30, 11489.94, 32462.51, 9032.81, 21172.42, 75548.89, 43127.09, 19108.15, 0.00, 0.00, 0.00
133, 1735.75, 11382.92, 32444.47, 8925.48, 21071.86, 77539.83, 43449.91, 19037.27, 0.00, 0.00, 0.00
134, 1752.62, 11391.92, 32354.46, 8916.87, 21065.09, 77929.29, 43210.68, 18981.55, 0.00, 0.00, 0.00
135, 1870.62, 11498.50, 32351.69, 9011.51, 21159.70, 75821.80, 42826.37, 19035.88, 0.02, 0.98, 0.13
136, 1870.98, 11507.95, 32442.97, 9039.56, 21184.45, 75347.66, 43058.11, 19101.53, 0.00, 0.00, 0.00
137, 1751.39, 11392.21, 32453.19, 8951.52, 21097.83, 77191.63, 43434.11, 19058.77, 0.00, 0.00, 0.00
138, 1732.19, 11373.42, 32380.03, 8922.95, 21072.64, 78137.02, 43317.81, 18997.93, 0.00, 0.00, 0.00
139, 1852.60, 11483.43, 32365.35, 9015.49, 21178.14, 76196.55, 42879.77, 19039.13, 0.00, 0.00, 0.00
140, 1875.36, 11510.32, 32441.41, 9057.17, 21198.19, 75247.62, 43006.97, 19106.90, 0.00, 0.00, 0.00
141, 1763.13, 11406.03, 32453.08, 8973.76, 21102.19, 76844.71, 43394.28, 19066.95, 0.00, 0.00, 0.00
142, 1713.95, 11360.45, 32372.63, 8909.96, 21051.97, 78240.11, 43397.00, 19006.85, 0.00, 0.00, 0.00
143, 1830.72, 11472.43, 32342.55, 8983.79, 21140.01, 76611.36, 42930.43, 19023.01, 0.00, 0.00, 0.00
144, 1882.71, 11538.06, 32417.11, 9035.51, 21208.61, 75197.32, 42949.57, 19092.88, 0.00, 0.00, 0.00
145, 1804.88, 11464.34, 32475.77, 8983.84, 21135.45, 76471.48, 43353.49, 19093.60, 0.02, 0.98, 0.12
146, 1723.30, 11370.49, 32411.73, 8901.38, 21044.61, 78204.02, 43447.32, 19011.03, 0.00, 0.00, 0.00
147, 1816.64, 11449.19, 32355.29, 8948.25, 21104.56, 77029.96, 42992.21, 18996.05, 0.00, 0.00, 0.00
148, 1893.84, 11523.26, 32411.84, 9019.67, 21189.03, 75274.80, 42899.77, 19077.06, 0.00, 0.00, 0.00
149, 1815.59, 11456.57, 32456.59, 8966.36, 21139.01, 76144.57, 43268.30, 19077.01, 0.00, 0.00, 0.00
150, 1709.60, 11352.63, 32401.60, 8862.58, 21035.40, 78075.40, 43449.42, 18993.46, 0.00, 0.00, 0.00
151, 1792.81, 11436.69, 32350.33, 8908.49, 21090.48, 77443.54, 43066.54, 18986.15, 0.00, 0.00, 0.00
152, 1888.52, 11528.67, 32405.60, 8992.42, 21173.31, 75421.96, 42853.61, 19062.53, 0.00, 0.00, 0.00
153, 1844.31, 11496.49, 32483.19, 8971.57, 21155.61, 75824.58, 43192.75, 19094.56, 0.00, 0.00, 0.00
154, 1728.26, 11386.51, 32440.25, 8865.06, 21058.34, 77840.80, 43469.65, 19023.30, 0.00, 0.00, 0.00
155, 1762.68, 11413.76, 32333.79, 8860.81, 21071.99, 77793.12, 43152.21, 18970.71, 0.02, 0.97, 0.12
156, 1877.30, 11519.44, 32361.10, 8956.86, 21163.66, 75662.46, 42840.87, 19037.47, 0.00, 0.00, 0.00
157, 1854.21, 11500.42, 32432.29, 8956.48, 21156.55, 75580.72, 43120.38, 19076.52, 0.00, 0.00, 0.00
158, 1738.94, 11394.16, 32418.34, 8863.99, 21059.05, 77549.11, 43460.51, 19022.03, 0.00, 0.00, 0.00
159, 1741.20, 11400.35, 32330.52, 8840.43, 21040.77, 78057.07, 43247.50, 18968.00, 0.00, 0.00, 0.00
160, 1863.38, 11521.61, 32335.82, 8932.34, 21141.29, 75957.88, 42852.07, 19020.75, 0.00, 0.00, 0.00
161, 1863.60, 11502.54, 32403.05, 8952.16, 21163.17, 75370.73, 43054.06, 19078.98, 0.00, 0.00, 0.00
162, 1751.15, 11395.32, 32413.92, 8866.29, 21076.13, 77183.74, 43437.13, 19037.72, 0.00, 0.00, 0.00
163, 1715.25, 11362.64, 32316.35, 8816.24, 21032.01, 78237.92, 43331.89, 18960.34, 0.00, 0.00, 0.00
164, 1836.42, 11484.68, 32297.53, 8908.04, 21123.38, 76332.52, 42881.93, 18995.43, 0.00, 0.00, 0.00
165, 1879.02, 11531.76, 32402.79, 8961.33, 21178.97, 75268.70, 42997.29, 19075.11, 0.02, 0.97, 0.12
166, 1780.18, 11440.67, 32441.46, 8889.65, 21101.86, 76825.54, 43391.73, 19049.68, 0.00, 0.00, 0.00
167, 1711.50, 11372.14, 32371.00, 8817.45, 21022.20, 78319.64, 43394.37, 18965.59, 0.00, 0.00, 0.00
168, 1815.12, 11472.46, 32330.05, 8883.70, 21095.33, 76779.02, 42913.96, 18971.24, 0.00, 0.00, 0.00
169, 1878.69, 11531.11, 32422.03, 8952.90, 21169.13, 75263.26, 42913.09, 19052.67, 0.00, 0.00, 0.00
170, 1791.96, 11453.44, 32483.05, 8898.77, 21117.77, 76467.17, 43315.58, 19040.45, 0.00, 0.00, 0.00
171, 1709.30, 11385.91, 32422.63, 8825.38, 21044.08, 78268.07, 43447.30, 18965.86, 0.00, 0.00, 0.00
172, 1787.60, 11452.43, 32361.28, 8865.01, 21074.95, 77192.55, 42993.27, 18941.49, 0.00, 0.00, 0.00
173, 1869.81, 11532.27, 32427.62, 8949.48, 21153.31, 75332.26, 42872.05, 19019.54, 0.00, 0.00, 0.00
174, 1804.52, 11462.82, 32509.38, 8913.16, 21118.91, 76089.60, 43242.13, 19031.12, 0.00, 0.00, 0.00
175, 1714.24, 11376.46, 32497.27, 8830.21, 21041.06, 78088.14, 43475.24, 18964.85, 0.02, 0.98, 0.11
176, 1771.62, 11427.96, 32413.45, 8847.27, 21074.19, 77573.80, 43084.75, 18917.96, 0.00, 0.00, 0.00
177, 1885.62, 11532.52, 32453.26, 8943.11, 21171.26, 75482.27, 42854.62, 18998.31, 0.00, 0.00, 0.00
178, 1842.19, 11483.50, 32517.47, 8922.50, 21145.55, 75805.27, 43192.58, 19028.67, 0.00, 0.00, 0.00
179, 1734.52, 11381.82, 32477.98, 8825.68, 21053.33, 77851.34, 43489.16, 18961.79, 0.00, 0.00, 0.00
180, 1763.75, 11404.55, 32356.85, 8814.25, 21057.09, 77929.42, 43180.80, 18898.53, 0.00, 0.00, 0.00
181, 1893.10, 11520.22, 32350.86, 8909.20, 21160.80, 75748.20, 42844.45, 18962.37, 0.00, 0.00, 0.00
182, 1887.25, 11515.33, 32398.58, 8915.04, 21168.00, 75550.84, 43119.06, 19022.70, 0.00, 0.00, 0.00
183, 1778.64, 11410.61, 32353.57, 8815.95, 21076.11, 77528.61, 43475.01, 18968.54, 0.00, 0.00, 0.00
184, 1774.53, 11403.17, 32244.98, 8779.88, 21045.35, 78169.13, 43268.91, 18896.90, 0.00, 0.00, 0.00
185, 1900.55, 11514.39, 32230.54, 8871.03, 21138.92, 76064.48, 42846.55, 18942.86, 0.02, 0.98, 0.11
186, 1926.25, 11530.73, 32285.48, 8908.02, 21180.54, 75373.68, 43037.59, 19015.23, 0.00, 0.00, 0.00
187, 1818.18, 11425.14, 32253.88, 8818.95, 21094.06, 77161.52, 43425.08, 18974.91, 0.00, 0.00, 0.00
188, 1784.88, 11393.35, 32149.43, 8756.25, 21042.33, 78318.12, 43343.90, 18894.44, 0.00, 0.00, 0.00
189, 1917.31, 11516.80, 32114.18, 8840.11, 21132.54, 76431.61, 42873.80, 18921.44, 0.00, 0.00, 0.00
190, 1969.01, 11564.95, 32187.27, 8899.75, 21205.63, 75247.59, 42962.58, 19000.37, 0.00, 0.00, 0.00
191, 1878.95, 11458.51, 32200.46, 8837.34, 21133.24, 76750.45, 43371.37, 18985.28, 0.00, 0.00, 0.00
192, 1812.41, 11385.11, 32086.26, 8761.53, 21039.23, 78325.43, 43408.05, 18904.72, 0.00, 0.00, 0.00
193, 1924.22, 11485.96, 31979.89, 8831.42, 21104.29, 76841.90, 42934.46, 18905.75, 0.00, 0.00, 0.00
194, 1991.18, 11543.02, 32014.56, 8907.42, 21177.81, 75247.95, 42916.87, 18990.38, 0.02, 0.98, 0.12
195, 1901.84, 11469.71, 32018.09, 8853.88, 21121.08, 76370.01, 43306.37, 18983.22, 0.00, 0.00, 0.00
196, 1817.62, 11382.98, 31952.40, 8780.64, 21051.12, 78240.24, 43458.74, 18910.58, 0.00, 0.00, 0.00
197, 1905.58, 11450.26, 31885.90, 8825.18, 21106.13, 77245.70, 43010.41, 18890.62, 0.00, 0.00, 0.00
198, 1997.93, 11535.47, 31953.92, 8907.48, 21160.87, 75307.09, 42862.17, 18968.94, 0.00, 0.00, 0.00
199, 1944.11, 11502.01, 32047.80, 8895.17, 21131.32, 76016.67, 43243.56, 18995.43, 0.00, 0.00, 0.00
200, 1849.03, 11416.24, 32026.47, 8825.50, 21062.92, 78041.80, 43501.39, 18942.97, 0.00, 0.00, 0.00
201, 1903.63, 11464.72, 31971.67, 8842.98, 21083.97, 77628.57, 43119.11, 18901.33, 0.00, 0.00, 0.00
202, 2019.84, 11574.27, 32047.42, 8937.61, 21183.48, 75492.08, 42853.72, 18979.87, 0.00, 0.00, 0.00
203, 1979.54, 11534.82, 32119.34, 8920.29, 21169.09, 75726.95, 43178.85, 19010.34, 0.00, 0.00, 0.00
204, 1861.05, 11421.90, 32072.09, 8824.67, 21070.23, 77785.61, 43490.30, 18947.19, 0.02, 0.99, 0.12
205, 1876.59, 11434.33, 31967.31, 8813.72, 21054.58, 77965.66, 43194.41, 18881.68, 0.00, 0.00, 0.00
206, 2006.65, 11563.07, 31992.90, 8923.78, 21171.01, 75776.59, 42834.41, 18948.87, 0.00, 0.00, 0.00
207, 2001.58, 11561.48, 32061.81, 8945.12, 21185.27, 75473.41, 43091.57, 19006.34, 0.00, 0.00, 0.00
208, 1884.14, 11453.37, 32027.34, 8853.10, 21080.67, 77427.31, 43456.46, 18952.07, 0.00, 0.00, 0.00
209, 1870.95, 11439.91, 31921.22, 8818.43, 21054.38, 78182.13, 43289.38, 18888.61, 0.00, 0.00, 0.00
210, 1988.75, 11555.81, 31902.26, 8905.87, 21141.31, 76083.21, 42849.37, 18921.49, 0.00, 0.00, 0.00
211, 2010.61, 11556.32, 31972.56, 8946.15, 21178.61, 75315.30, 43022.61, 18984.43, 0.00, 0.00, 0.00
212, 1918.85, 11463.38, 31982.13, 8881.93, 21123.27, 77077.17, 43434.64, 18961.61, 0.00, 0.00, 0.00
213, 1868.29, 11424.22, 31876.22, 8816.89, 21055.43, 78337.85, 43377.71, 18878.37, 0.00, 0.00, 0.00
214, 1982.24, 11534.37, 31844.44, 8882.94, 21123.94, 76533.84, 42893.06, 18890.73, 0.02, 0.98, 0.12
215, 2032.85, 11584.86, 31930.38, 8939.60, 21190.64, 75264.00, 42966.15, 18977.84, 0.00, 0.00, 0.00
216, 1937.85, 11497.74, 31965.03, 8878.05, 21126.60, 76708.75, 43375.10, 18965.10, 0.00, 0.00, 0.00
217, 1866.95, 11433.54, 31897.79, 8806.18, 21059.01, 78350.55, 43440.77, 18894.09, 0.00, 0.00, 0.00
218, 1957.28, 11527.17, 31834.27, 8854.69, 21118.22, 76966.20, 42956.50, 18883.49, 0.00, 0.00, 0.00
219, 2032.44, 11594.94, 31900.77, 8929.59, 21190.86, 75286.98, 42907.14, 18970.89, 0.00, 0.00, 0.00
220, 1956.34, 11529.43, 31944.31, 8883.77, 21142.36, 76327.31, 43307.00, 18975.38, 0.00, 0.00, 0.00
221, 1856.47, 11423.69, 31883.69, 8789.29, 21053.46, 78243.82, 43472.38, 18896.99, 0.00, 0.00, 0.00
222, 1932.38, 11490.23, 31804.97, 8831.93, 21089.67, 77370.90, 43035.22, 18873.16, 0.00, 0.00, 0.00
223, 2031.84, 11586.50, 31849.98, 8932.70, 21180.36, 75367.76, 42866.04, 18958.32, 0.00, 0.00, 0.00
224, 1977.77, 11536.54, 31907.00, 8912.04, 21158.36, 75969.62, 43242.40, 18986.69, 0.02, 0.98, 0.12
225, 1860.98, 11432.07, 31839.70, 8810.07, 21052.28, 78028.88, 43498.08, 18908.39, 0.00, 0.00, 0.00
226, 1912.93, 11477.60, 31737.93, 8822.52, 21072.62, 77730.40, 43130.02, 18860.76, 0.00, 0.00, 0.00
227, 2025.92, 11577.49, 31751.72, 8913.50, 21180.31, 75561.61, 42844.27, 18936.38, 0.00, 0.00, 0.00
228, 1997.98, 11557.01, 31787.42, 8910.25, 21181.36, 75672.59, 43166.52, 18989.66, 0.00, 0.00, 0.00
229, 1871.82, 11438.01, 31702.66, 8811.93, 21068.89, 77720.70, 43492.69, 18922.49, 0.00, 0.00, 0.00
230, 1885.06, 11455.89, 31583.68, 8801.51, 21055.52, 78046.90, 43228.59, 18858.05, 0.00, 0.00, 0.00
231, 2012.98, 11579.90, 31605.21, 8907.15, 21161.58, 75862.34, 42846.04, 18917.49, 0.00, 0.00, 0.00
232, 2009.51, 11584.75, 31684.69, 8931.67, 21178.88, 75483.70, 43096.02, 18984.52, 0.00, 0.00, 0.00
233, 1885.95, 11472.01, 31659.75, 8833.39, 21067.21, 77422.51, 43459.99, 18927.99, 0.00, 0.00, 0.00
234, 1873.01, 11448.97, 31559.01, 8792.93, 21023.69, 78306.52, 43309.39, 18854.79, 0.02, 0.99, 0.12
235, 2005.87, 11574.69, 31554.56, 8889.98, 21132.93, 76266.45, 42864.16, 18906.69, 0.00, 0.00, 0.00
236, 2032.13, 11597.07, 31636.30, 8932.27, 21183.96, 75354.73, 43016.55, 18979.69, 0.00, 0.00, 0.00
237, 1920.73, 11484.06, 31649.38, 8840.56, 21104.27, 77049.86, 43417.39, 18940.13, 0.00, 0.00, 0.00
238, 1867.69, 11439.47, 31561.69, 8766.53, 21040.01, 78401.31, 43385.14, 18860.78, 0.00, 0.00, 0.00
239, 1983.43, 11556.61, 31530.44, 8837.32, 21119.98, 76659.06, 42906.14, 18879.74, 0.00, 0.00, 0.00
240, 2029.38, 11611.04, 31590.55, 8889.69, 21179.89, 75302.64, 42953.88, 18955.71, 0.00, 0.00, 0.00
241, 1933.07, 11521.94, 31605.99, 8819.82, 21116.50, 76667.95, 43360.82, 18942.46, 0.00, 0.00, 0.00
242, 1851.80, 11433.90, 31518.55, 8739.06, 21045.15, 78394.25, 43460.60, 18864.16, 0.00, 0.00, 0.00
243, 1952.49, 11518.95, 31444.41, 8798.29, 21099.58, 77095.01, 42992.26, 18861.74, 0.00, 0.00, 0.00
244, 2025.00, 11589.09, 31490.21, 8873.35, 21171.01, 75340.27, 42922.52, 18943.71, 0.02, 0.98, 0.12
245, 1942.08, 11514.68, 31514.84, 8814.61, 21120.92, 76308.49, 43310.19, 18946.93, 0.00, 0.00, 0.00
246, 1839.41, 11415.39, 31445.73, 8721.38, 21030.93, 78279.16, 43498.53, 18873.48, 0.00, 0.00, 0.00
247, 1904.86, 11490.45, 31372.15, 8754.64, 21069.85, 77519.06, 43072.10, 18838.16, 0.00, 0.00, 0.00
248, 2002.78, 11585.76, 31445.21, 8847.87, 21172.22, 75459.73, 42872.14, 18923.39, 0.00, 0.00, 0.00
249, 1947.31, 11529.50, 31528.10, 8823.44, 21167.23, 75961.41, 43228.90, 18954.90, 0.00, 0.00, 0.00
250, 1834.99, 11428.22, 31492.56, 8728.54, 21057.13, 78032.84, 43502.66, 18881.97, 0.00, 0.00, 0.00
251, 1875.62, 11463.63, 31428.32, 8732.18, 21036.54, 77865.79, 43147.56, 18826.56, 0.00, 0.00, 0.00
252, 1994.40, 11578.23, 31469.98, 8831.24, 21141.22, 75667.36, 42837.81, 18902.06, 0.00, 0.00, 0.00
253, 1953.01, 11546.37, 31530.06, 8827.67, 21134.56, 75690.18, 43130.39, 18941.67, 0.00, 0.00, 0.00
254, 1843.97, 11446.37, 31519.69, 8747.18, 21043.43, 77744.59, 43471.75, 18895.90, 0.02, 0.98, 0.12
255, 1852.78, 11462.82, 31421.32, 8729.96, 21022.96, 78181.33, 43220.18, 18825.35, 0.00, 0.00, 0.00
0, 1982.55, 11578.16, 31437.26, 8838.73, 21134.54, 75988.30, 42825.36, 18885.35, 0.00, 0.00, 0.00
1, 1987.72, 11571.18, 31519.54, 8874.92, 21170.59, 75482.71, 43067.41, 18955.49, 0.00, 0.00, 0.00
2, 1872.58, 11464.01, 31524.16, 8792.42, 21084.42, 77380.35, 43459.12, 18909.11, 0.00, 0.00, 0.00
3, 1836.75, 11427.53, 31439.16, 8745.92, 21024.01, 78361.28, 43322.73, 18823.99, 0.00, 0.00, 0.00
4, 1963.91, 11547.09, 31443.92, 8842.08, 21118.15, 76366.72, 42870.18, 18860.98, 0.00, 0.00, 0.00
5, 1995.21, 11578.18, 31524.97, 8890.12, 21165.87, 75374.84, 43008.69, 18939.30, 0.00, 0.00, 0.00
6, 1887.74, 11484.59, 31539.85, 8814.92, 21086.26, 77016.46, 43418.24, 18912.79, 0.00, 0.00, 0.00
7, 1829.65, 11422.93, 31456.48, 8745.08, 21017.14, 78461.80, 43416.56, 18832.15, 0.00, 0.00, 0.00
8, 1947.62, 11529.23, 31428.79, 8820.13, 21096.67, 76800.86, 42934.08, 18845.63, 0.01, 0.98, 0.12
9, 2004.30, 11588.46, 31504.16, 8884.37, 21162.97, 75350.12, 42957.04, 18928.15, 0.00, 0.00, 0.00
10, 1908.08, 11511.62, 31540.99, 8821.18, 21108.52, 76635.59, 43361.38, 18918.63, 0.00, 0.00, 0.00
11, 1822.63, 11422.01, 31468.82, 8739.06, 21024.45, 78436.98, 43468.93, 18842.63, 0.00, 0.00, 0.00
12, 1919.59, 11508.02, 31412.49, 8799.17, 21067.59, 77242.28, 42994.45, 18832.26, 0.00, 0.00, 0.00
13, 2006.87, 11597.43, 31488.04, 8891.84, 21163.12, 75393.84, 42894.54, 18922.36, 0.00, 0.00, 0.00
14, 1928.53, 11534.48, 31534.33, 8843.29, 21122.29, 76274.03, 43278.54, 18922.79, 0.00, 0.00, 0.00
15, 1827.72, 11435.42, 31476.08, 8743.80, 21029.06, 78284.70, 43488.51, 18838.99, 0.00, 0.00, 0.00
16, 1894.62, 11495.35, 31406.30, 8769.17, 21058.23, 77646.74, 43072.55, 18804.68, 0.00, 0.00, 0.00
17, 2000.28, 11601.96, 31465.96, 8863.67, 21137.55, 75538.63, 42848.25, 18890.82, 0.00, 0.00, 0.00
18, 1948.24, 11546.60, 31528.39, 8838.57, 21117.75, 75933.32, 43195.77, 18918.14, 0.02, 0.98, 0.11
19, 1829.36, 11434.30, 31479.06, 8737.70, 21040.99, 78029.45, 43490.97, 18850.52, 0.00, 0.00, 0.00
20, 1855.69, 11459.43, 31392.89, 8730.77, 21028.25, 78004.63, 43164.61, 18793.59, 0.00, 0.00, 0.00
21, 1982.15, 11576.28, 31442.11, 8837.23, 21112.18, 75790.60, 42831.48, 18867.93, 0.00, 0.00, 0.00
22, 1970.55, 11569.64, 31530.82, 8852.70, 21134.15, 75690.29, 43132.07, 18929.11, 0.00, 0.00, 0.00
23, 1843.57, 11462.24, 31505.21, 8755.42, 21041.62, 77724.97, 43486.30, 18868.31, 0.00, 0.00, 0.00
24, 1830.63, 11450.17, 31402.12, 8718.68, 21007.13, 78281.98, 43257.96, 18787.69, 0.00, 0.00, 0.00
25, 1968.25, 11579.34, 31411.13, 8823.57, 21110.73, 76106.99, 42840.71, 18840.60, 0.00, 0.00, 0.00
26, 1972.79, 11591.97, 31492.02, 8853.35, 21150.72, 75500.14, 43063.00, 18908.44, 0.00, 0.00, 0.00
27, 1852.65, 11481.60, 31493.67, 8764.61, 21053.42, 77369.73, 43456.57, 18861.61, 0.02, 0.98, 0.12
28, 1820.46, 11453.37, 31401.88, 8721.94, 21003.93, 78478.36, 43355.25, 18787.82, 0.00, 0.00, 0.00
29, 1943.77, 11577.04, 31369.58, 8809.92, 21096.89, 76537.69, 42884.50, 18820.41, 0.00, 0.00, 0.00
30, 1977.46, 11608.76, 31439.63, 8851.36, 21156.28, 75418.85, 42996.73, 18900.37, 0.00, 0.00, 0.00
31, 1877.39, 11514.57, 31459.86, 8774.51, 21084.69, 76995.63, 43410.57, 18877.01, 0.00, 0.00, 0.00
32, 1811.90, 11453.84, 31383.10, 8696.15, 21005.14, 78537.63, 43422.42, 18793.14, 0.00, 0.00, 0.00
33, 1913.85, 11554.09, 31345.41, 8761.79, 21074.41, 76971.67, 42932.36, 18795.04, 0.00, 0.00, 0.00
34, 1973.57, 11607.46, 31429.95, 8820.65, 21143.47, 75417.89, 42928.51, 18877.23, 0.00, 0.00, 0.00
35, 1878.57, 11521.54, 31471.05, 8752.65, 21082.86, 76630.00, 43335.25, 18869.30, 0.00, 0.00, 0.00
36, 1784.45, 11439.35, 31397.63, 8661.30, 20998.08, 78485.45, 43465.18, 18788.29, 0.00, 0.00, 0.00
37, 1874.26, 11516.89, 31330.84, 8716.38, 21061.53, 77401.20, 43000.71, 18770.90, 0.02, 0.98, 0.12
38, 1965.14, 11612.78, 31397.83, 8803.19, 21152.04, 75487.94, 42883.39, 18860.65, 0.00, 0.00, 0.00
39, 1892.77, 11546.93, 31456.41, 8762.82, 21103.53, 76270.72, 43267.48, 18885.46, 0.00, 0.00, 0.00
40, 1786.04, 11439.44, 31391.04, 8664.77, 21006.41, 78313.76, 43493.05, 18810.47, 0.00, 0.00, 0.00
41, 1848.42, 11498.65, 31306.14, 8686.38, 21038.60, 77797.52, 43092.89, 18770.75, 0.00, 0.00, 0.00
42, 1950.48, 11598.90, 31346.17, 8777.98, 21138.89, 75656.31, 42847.36, 18845.00, 0.00, 0.00, 0.00
43, 1904.99, 11558.76, 31412.78, 8760.86, 21117.82, 75949.23, 43187.48, 18878.60, 0.00, 0.00, 0.00
44, 1786.08, 11447.71, 31374.16, 8662.17, 21023.27, 78036.46, 43490.88, 18808.14, 0.00, 0.00, 0.00
45, 1807.61, 11462.02, 31280.77, 8652.70, 21006.68, 78137.41, 43175.77, 18754.34, 0.00, 0.00, 0.00
46, 1940.94, 11598.16, 31313.34, 8755.22, 21119.51, 75929.41, 42834.50, 18831.03, 0.00, 0.00, 0.00
47, 1919.97, 11586.38, 31384.51, 8759.47, 21127.74, 75713.54, 43104.24, 18880.56, 0.02, 0.98, 0.13
48, 1798.13, 11470.13, 31361.75, 8665.19, 21039.96, 77716.05, 43469.70, 18827.19, 0.00, 0.00, 0.00
49, 1795.83, 11457.86, 31281.85, 8639.08, 21006.39, 78400.38, 43274.16, 18759.42, 0.00, 0.00, 0.00
50, 1922.81, 11585.69, 31294.86, 8737.65, 21094.32, 76268.13, 42838.64, 18806.49, 0.00, 0.00, 0.00
51, 1927.53, 11583.72, 31377.74, 8762.35, 21126.51, 75543.06, 43036.14, 18871.60, 0.00, 0.00, 0.00
52, 1808.01, 11473.60, 31388.02, 8672.57, 21039.65, 77362.58, 43436.16, 18830.29, 0.00, 0.00, 0.00
53, 1771.93, 11448.65, 31301.58, 8619.15, 20988.69, 78567.74, 43359.43, 18756.60, 0.00, 0.00, 0.00
54, 1894.60, 11561.84, 31288.84, 8710.45, 21085.27, 76683.22, 42884.64, 18782.30, 0.00, 0.00, 0.00
55, 1930.50, 11596.89, 31368.35, 8762.80, 21139.45, 75469.52, 42971.83, 18858.90, 0.00, 0.00, 0.00
56, 1833.63, 11513.18, 31396.33, 8697.26, 21064.82, 76985.58, 43381.76, 18842.95, 0.00, 0.00, 0.00
57, 1765.81, 11451.78, 31319.84, 8625.72, 20992.15, 78605.95, 43424.27, 18760.76, 0.02, 0.97, 0.12
58, 1868.47, 11540.34, 31274.25, 8689.46, 21063.79, 77130.01, 42937.88, 18758.23, 0.00, 0.00, 0.00
59, 1939.26, 11609.21, 31346.02, 8759.89, 21135.56, 75491.07, 42914.30, 18854.17, 0.00, 0.00, 0.00
60, 1851.01, 11529.99, 31386.74, 8696.50, 21072.46, 76616.70, 43310.26, 18844.78, 0.00, 0.00, 0.00
61, 1763.42, 11448.43, 31323.80, 8610.92, 20990.08, 78532.59, 43467.23, 18772.25, 0.00, 0.00, 0.00
62, 1836.06, 11514.41, 31235.64, 8641.16, 21044.28, 77580.35, 43011.64, 18744.53, 0.00, 0.00, 0.00
63, 1925.22, 11599.91, 31283.34, 8718.39, 21125.06, 75605.42, 42853.19, 18822.74, 0.00, 0.00, 0.00
64, 1877.32, 11565.69, 31364.86, 8694.90, 21088.33, 76277.98, 43239.61, 18850.99, 0.00, 0.00, 0.00
65, 1766.68, 11457.88, 31328.49, 8592.93, 20984.87, 78350.75, 43487.08, 18775.17, 0.00, 0.00, 0.00
66, 1815.83, 11498.21, 31250.73, 8600.06, 21001.43, 77980.90, 43097.02, 18727.39, 0.00, 0.00, 0.00
67, 1931.41, 11614.82, 31295.41, 8698.83, 21118.29, 75792.51, 42819.82, 18802.49, 0.02, 0.98, 0.12
68, 1892.23, 11580.64, 31356.99, 8686.04, 21107.11, 75978.61, 43150.62, 18840.33, 0.00, 0.00, 0.00
69, 1777.16, 11459.81, 31323.80, 8589.62, 20995.93, 78054.48, 43479.77, 18789.35, 0.00, 0.00, 0.00
70, 1788.68, 11464.77, 31228.36, 8569.82, 20975.59, 78294.65, 43194.88, 18721.24, 0.00, 0.00, 0.00
71, 1905.91, 11583.03, 31245.26, 8663.63, 21077.87, 76092.91, 42826.37, 18775.67, 0.00, 0.00, 0.00
72, 1900.81, 11590.45, 31342.08, 8686.89, 21107.15, 75769.30, 43083.30, 18831.30, 0.00, 0.00, 0.00
73, 1794.67, 11488.86, 31363.07, 8608.80, 21019.83, 77737.48, 43463.82, 18799.11, 0.00, 0.00, 0.00
74, 1779.89, 11467.27, 31289.04, 8569.79, 20973.38, 78550.91, 43288.82, 18724.59, 0.00, 0.00, 0.00
75, 1905.17, 11584.10, 31292.13, 8660.99, 21079.10, 76455.34, 42839.71, 18766.43, 0.00, 0.00, 0.00
76, 1915.05, 11595.97, 31356.32, 8686.47, 21112.32, 75612.66, 43010.14, 18833.54, 0.00, 0.00, 0.00
77, 1800.34, 11492.91, 31354.24, 8598.63, 21025.75, 77360.37, 43412.52, 18795.76, 0.02, 0.98, 0.12
78, 1760.74, 11457.75, 31264.50, 8541.09, 20972.44, 78660.62, 43365.54, 18720.39, 0.00, 0.00, 0.00
79, 1875.11, 11566.94, 31224.56, 8614.61, 21052.91, 76853.74, 42883.83, 18747.57, 0.00, 0.00, 0.00
80, 1928.28, 11618.39, 31301.87, 8669.64, 21115.83, 75534.39, 42952.41, 18839.41, 0.00, 0.00, 0.00
81, 1832.82, 11534.73, 31344.72, 8599.50, 21056.35, 76962.20, 43365.11, 18823.32, 0.00, 0.00, 0.00
82, 1747.55, 11454.58, 31264.95, 8510.47, 20974.29, 78664.81, 43428.84, 18733.29, 0.00, 0.00, 0.00
83, 1854.28, 11548.88, 31217.52, 8572.97, 21031.83, 77287.57, 42945.07, 18727.32, 0.00, 0.00, 0.00
84, 1927.15, 11614.06, 31297.78, 8645.59, 21095.82, 75546.84, 42880.34, 18807.45, 0.00, 0.00, 0.00
85, 1839.82, 11536.47, 31364.01, 8591.43, 21042.18, 76591.16, 43280.02, 18803.29, 0.00, 0.00, 0.00
86, 1749.05, 11456.63, 31330.77, 8512.33, 20960.17, 78572.98, 43464.98, 18733.64, 0.00, 0.00, 0.00
87, 1834.21, 11532.25, 31256.86, 8555.91, 21012.94, 77725.33, 43026.48, 18713.68, 0.02, 0.99, 0.12
88, 1936.20, 11625.95, 31305.83, 8644.22, 21104.03, 75662.24, 42847.00, 18797.37, 0.00, 0.00, 0.00
89, 1877.28, 11577.15, 31343.43, 8611.55, 21077.54, 76245.77, 43222.33, 18818.69, 0.00, 0.00, 0.00
90, 1758.32, 11461.93, 31271.92, 8511.57, 20981.13, 78362.17, 43492.34, 18745.78, 0.00, 0.00, 0.00
91, 1794.26, 11493.02, 31164.99, 8515.30, 20986.39, 78124.13, 43123.53, 18690.88, 0.00, 0.00, 0.00
92, 1911.28, 11601.29, 31198.92, 8610.52, 21098.79, 75908.71, 42830.84, 18766.84, 0.00, 0.00, 0.00
93, 1888.07, 11581.47, 31276.79, 8608.91, 21104.99, 75972.99, 43150.15, 18813.17, 0.00, 0.00, 0.00
94, 1774.62, 11479.14, 31254.06, 8517.13, 21002.62, 78060.65, 43486.12, 18748.96, 0.00, 0.00, 0.00
95, 1787.02, 11485.20, 31166.96, 8506.49, 20977.31, 78424.20, 43224.34, 18689.92, 0.00, 0.00, 0.00
96, 1908.12, 11604.49, 31180.66, 8611.37, 21071.08, 76202.86, 42838.32, 18751.64, 0.00, 0.00, 0.00
97, 1905.06, 11603.01, 31266.22, 8627.04, 21097.05, 75747.78, 43083.84, 18810.24, 0.02, 0.99, 0.13
98, 1792.83, 11490.05, 31288.19, 8527.88, 21008.70, 77709.28, 43466.43, 18761.12, 0.00, 0.00, 0.00
99, 1771.02, 11466.53, 31215.06, 8483.40, 20963.41, 78653.35, 43308.11, 18683.87, 0.00, 0.00, 0.00
100, 1904.73, 11600.58, 31235.13, 8579.54, 21061.80, 76579.94, 42843.24, 18726.92, 0.00, 0.00, 0.00
101, 1930.88, 11629.32, 31349.62, 8617.69, 21098.86, 75608.26, 42993.15, 18802.49, 0.00, 0.00, 0.00
102, 1817.73, 11522.41, 31375.79, 8530.12, 21025.46, 77309.74, 43408.11, 18773.27, 0.00, 0.00, 0.00
103, 1760.38, 11465.04, 31282.70, 8460.20, 20955.18, 78722.23, 43382.45, 18687.49, 0.00, 0.00, 0.00
104, 1874.55, 11575.03, 31246.87, 8542.23, 21035.52, 76988.46, 42897.64, 18707.27, 0.00, 0.00, 0.00
105, 1930.72, 11629.88, 31338.26, 8614.54, 21110.78, 75545.52, 42940.96, 18805.62, 0.00, 0.00, 0.00
106, 1826.65, 11534.51, 31372.44, 8545.32, 21045.37, 76914.97, 43356.41, 18794.91, 0.00, 0.00, 0.00
107, 1741.56, 11459.40, 31298.65, 8463.40, 20967.43, 78716.91, 43444.46, 18707.61, 0.02, 0.99, 0.13
108, 1834.83, 11544.14, 31253.39, 8521.65, 21019.71, 77460.98, 42958.64, 18692.94, 0.00, 0.00, 0.00
109, 1918.85, 11623.09, 31332.41, 8610.00, 21103.35, 75635.41, 42880.03, 18780.25, 0.00, 0.00, 0.00
110, 1845.20, 11561.06, 31414.77, 8558.93, 21060.35, 76576.96, 43283.66, 18787.33, 0.00, 0.00, 0.00
111, 1751.68, 11457.19, 31394.48, 8462.04, 20974.70, 78586.97, 43493.12, 18718.18, 0.00, 0.00, 0.00
112, 1824.55, 11517.16, 31327.31, 8480.45, 21007.60, 77869.72, 43062.45, 18682.15, 0.00, 0.00, 0.00
113, 1931.01, 11618.46, 31379.57, 8557.99, 21104.92, 75758.55, 42856.81, 18758.03, 0.00, 0.00, 0.00
114, 1883.09, 11574.00, 31464.64, 8519.46, 21090.28, 76224.25, 43220.05, 18787.78, 0.00, 0.00, 0.00
115, 1778.93, 11473.28, 31425.97, 8419.03, 20996.42, 78344.96, 43504.45, 18715.99, 0.00, 0.00, 0.00
116, 1824.01, 11507.30, 31329.63, 8413.87, 20999.78, 78250.44, 43154.71, 18658.48, 0.02, 0.99, 0.13
117, 1946.86, 11608.42, 31373.09, 8508.75, 21107.33, 76006.45, 42834.64, 18731.63, 0.00, 0.00, 0.00
118, 1920.66, 11582.23, 31494.97, 8497.60, 21102.64, 75961.71, 43135.82, 18772.74, 0.00, 0.00, 0.00
119, 1808.84, 11479.21, 31508.67, 8400.81, 21018.15, 78025.53, 43489.72, 18718.60, 0.00, 0.00, 0.00
120, 1818.87, 11479.21, 31387.08, 8374.82, 20991.97, 78516.60, 43244.88, 18656.29, 0.00, 0.00, 0.00
121, 1956.76, 11607.22, 31355.94, 8476.07, 21094.21, 76297.86, 42831.20, 18723.45, 0.00, 0.00, 0.00
122, 1960.49, 11613.12, 31397.36, 8493.57, 21119.56, 75745.16, 43052.70, 18779.35, 0.00, 0.00, 0.00
123, 1852.18, 11504.40, 31353.77, 8408.68, 21033.35, 77648.20, 43442.47, 18738.94, 0.00, 0.00, 0.00
124, 1828.51, 11473.44, 31252.14, 8357.36, 20979.66, 78686.38, 43320.88, 18660.00, 0.00, 0.00, 0.00
125, 1959.60, 11597.54, 31229.88, 8436.84, 21068.73, 76674.20, 42844.54, 18687.27, 0.00, 0.00, 0.00
126, 2000.84, 11629.28, 31297.07, 8483.18, 21120.47, 75603.74, 42980.41, 18768.27, 0.02, 0.98, 0.12
127, 1901.62, 11524.51, 31311.53, 8411.52, 21045.46, 77236.63, 43398.57, 18751.28, 0.00, 0.00, 0.00
128, 1843.66, 11466.06, 31202.05, 8338.59, 20977.94, 78743.98, 43402.13, 18670.59, 0.00, 0.00, 0.00
129, 1958.95, 11571.43, 31134.39, 8408.12, 21053.64, 77094.61, 42912.84, 18676.02, 0.00, 0.00, 0.00
130, 2028.49, 11639.76, 31200.49, 8481.77, 21130.45, 75573.23, 42943.15, 18767.28, 0.00, 0.00, 0.00
131, 1938.99, 11557.33, 31199.41, 8420.19, 21073.25, 76843.80, 43358.56, 18761.07, 0.00, 0.00, 0.00
132, 1843.33, 11459.20, 31094.56, 8319.41, 20982.34, 78688.66, 43472.82, 18670.95, 0.00, 0.00, 0.00
133, 1942.23, 11545.32, 31041.07, 8372.20, 21040.99, 77512.52, 42995.21, 18657.87, 0.00, 0.00, 0.00
134, 2027.28, 11625.34, 31106.92, 8453.74, 21125.91, 75622.45, 42886.92, 18742.52, 0.00, 0.00, 0.00
135, 1959.58, 11566.74, 31174.00, 8414.76, 21095.02, 76466.12, 43275.73, 18756.80, 0.00, 0.00, 0.00
136, 1851.98, 11463.72, 31136.05, 8315.99, 20979.77, 78497.96, 43486.21, 18676.85, 0.03, 0.98, 0.12
137, 1922.50, 11526.06, 31054.26, 8349.74, 21006.50, 77911.00, 43072.05, 18647.75, 0.00, 0.00, 0.00
138, 2031.24, 11625.81, 31062.15, 8442.32, 21107.67, 75784.99, 42838.82, 18725.96, 0.00, 0.00, 0.00
139, 1985.53, 11593.87, 31089.44, 8428.04, 21099.58, 76146.53, 43188.51, 18760.13, 0.00, 0.00, 0.00
140, 1873.81, 11481.82, 31037.34, 8338.56, 21006.37, 78224.66, 43495.75, 18702.24, 0.00, 0.00, 0.00
141, 1888.39, 11491.57, 30899.25, 8332.01, 20983.95, 78240.60, 43156.10, 18631.59, 0.00, 0.00, 0.00
142, 2012.84, 11606.32, 30890.40, 8436.98, 21083.84, 76018.70, 42812.60, 18700.01, 0.00, 0.00, 0.00
143, 2005.47, 11598.86, 30938.68, 8448.38, 21102.01, 75877.53, 43109.68, 18760.53, 0.00, 0.00, 0.00
144, 1884.23, 11492.82, 30895.00, 8354.61, 21008.13, 77899.85, 43472.98, 18713.13, 0.00, 0.00, 0.00
145, 1875.40, 11479.45, 30762.68, 8325.04, 20982.68, 78522.39, 43255.83, 18639.23, 0.00, 0.00, 0.00
146, 2005.09, 11600.87, 30742.77, 8424.17, 21078.54, 76354.88, 42834.95, 18689.61, 0.02, 0.99, 0.12
147, 2011.59, 11607.24, 30799.27, 8448.69, 21101.81, 75699.73, 43041.79, 18751.46, 0.00, 0.00, 0.00
148, 1902.65, 11502.83, 30781.95, 8367.04, 21021.46, 77523.78, 43438.13, 18713.33, 0.00, 0.00, 0.00
149, 1858.77, 11463.52, 30642.72, 8309.42, 20966.56, 78681.40, 43348.77, 18632.82, 0.00, 0.00, 0.00
150, 1977.84, 11577.67, 30585.19, 8390.91, 21042.33, 76769.43, 42868.66, 18656.46, 0.00, 0.00, 0.00
151, 2021.04, 11616.38, 30659.60, 8446.25, 21099.91, 75610.79, 42974.54, 18737.11, 0.00, 0.00, 0.00
152, 1924.08, 11530.91, 30658.05, 8379.85, 21036.32, 77159.38, 43392.29, 18721.64, 0.00, 0.00, 0.00
153, 1859.13, 11475.30, 30547.03, 8309.06, 20968.04, 78740.19, 43419.96, 18641.94, 0.00, 0.00, 0.00
154, 1966.95, 11563.07, 30485.86, 8380.32, 21050.96, 77210.32, 42932.22, 18650.29, 0.00, 0.00, 0.00
155, 2036.15, 11626.33, 30547.23, 8449.47, 21113.90, 75611.44, 42916.06, 18735.01, 0.00, 0.00, 0.00
156, 1952.60, 11552.92, 30588.56, 8392.19, 21077.43, 76780.12, 43321.81, 18729.44, 0.02, 0.99, 0.12
157, 1855.11, 11459.96, 30515.61, 8299.18, 20963.95, 78674.25, 43467.19, 18649.69, 0.00, 0.00, 0.00
158, 1943.28, 11541.05, 30440.48, 8340.22, 21010.28, 77636.10, 43005.89, 18629.87, 0.00, 0.00, 0.00
159, 2034.90, 11630.91, 30481.65, 8421.65, 21103.22, 75682.84, 42870.06, 18711.72, 0.00, 0.00, 0.00
160, 1969.05, 11569.17, 30528.32, 8385.52, 21069.07, 76410.24, 43247.54, 18727.05, 0.00, 0.00, 0.00
161, 1858.79, 11462.00, 30470.77, 8285.30, 20982.72, 78480.84, 43495.69, 18654.79, 0.00, 0.00, 0.00
162, 1914.72, 11516.36, 30367.32, 8301.68, 21012.36, 78033.00, 43100.29, 18614.17, 0.00, 0.00, 0.00
163, 2022.10, 11619.40, 30391.20, 8394.29, 21089.38, 75861.30, 42835.91, 18685.86, 0.00, 0.00, 0.00
164, 1975.42, 11580.62, 30450.27, 8372.56, 21063.75, 76129.55, 43170.07, 18721.02, 0.00, 0.00, 0.00
165, 1858.64, 11464.46, 30418.33, 8276.11, 20973.15, 78223.15, 43487.22, 18656.64, 0.00, 0.00, 0.00
166, 1876.00, 11481.64, 30307.94, 8266.57, 20987.97, 78365.02, 43189.43, 18594.86, 0.02, 0.98, 0.12
167, 2001.11, 11601.61, 30315.11, 8361.79, 21072.24, 76139.74, 42831.91, 18663.62, 0.00, 0.00, 0.00
168, 1997.08, 11595.24, 30397.61, 8370.82, 21081.70, 75862.98, 43099.14, 18721.71, 0.00, 0.00, 0.00
169, 1879.25, 11473.13, 30373.74, 8269.99, 20988.44, 77856.02, 43466.27, 18667.97, 0.00, 0.00, 0.00
170, 1868.14, 11469.91, 30251.45, 8231.54, 20947.34, 78590.38, 43271.93, 18599.36, 0.00, 0.00, 0.00
171, 1989.60, 11593.11, 30213.50, 8320.68, 21042.07, 76472.20, 42826.10, 18641.00, 0.00, 0.00, 0.00
172, 2008.51, 11608.85, 30273.71, 8353.12, 21084.38, 75703.23, 43010.48, 18711.34, 0.00, 0.00, 0.00
173, 1894.00, 11502.45, 30266.96, 8265.90, 21009.37, 77488.53, 43414.60, 18677.77, 0.00, 0.00, 0.00
174, 1851.35, 11461.88, 30169.06, 8210.38, 20959.90, 78740.32, 43351.09, 18606.13, 0.00, 0.00, 0.00
175, 1971.58, 11574.98, 30129.88, 8291.18, 21035.20, 76894.24, 42865.59, 18626.13, 0.00, 0.00, 0.00
176, 2014.85, 11620.74, 30198.79, 8345.27, 21088.54, 75633.80, 42945.05, 18703.02, 0.02, 0.98, 0.12
177, 1910.98, 11522.19, 30218.57, 8265.63, 21014.73, 77106.77, 43354.63, 18677.74, 0.00, 0.00, 0.00
178, 1840.08, 11453.66, 30143.36, 8189.46, 20941.84, 78756.15, 43414.42, 18597.14, 0.00, 0.00, 0.00
179, 1934.05, 11542.75, 30080.60, 8239.79, 20998.75, 77323.76, 42930.01, 18591.09, 0.00, 0.00, 0.00
180, 2011.23, 11623.76, 30157.06, 8317.35, 21083.46, 75650.46, 42893.84, 18680.92, 0.00, 0.00, 0.00
181, 1933.96, 11550.38, 30209.30, 8273.50, 21045.64, 76728.82, 43305.99, 18684.85, 0.00, 0.00, 0.00
182, 1832.35, 11454.24, 30121.03, 8175.96, 20940.66, 78662.24, 43466.74, 18594.33, 0.00, 0.00, 0.00
183, 1906.42, 11521.27, 30027.85, 8211.76, 20970.54, 77734.85, 42998.90, 18566.07, 0.00, 0.00, 0.00
184, 2013.87, 11634.37, 30097.16, 8320.48, 21081.07, 75739.17, 42852.18, 18666.63, 0.00, 0.00, 0.00
185, 1950.70, 11574.67, 30158.60, 8288.12, 21062.49, 76382.37, 43232.03, 18688.56, 0.00, 0.00, 0.00
186, 1835.15, 11457.30, 30098.81, 8185.21, 20947.63, 78467.16, 43474.59, 18607.78, 0.02, 0.98, 0.12
187, 1876.52, 11497.49, 30005.61, 8194.19, 20952.21, 78150.05, 43079.25, 18553.91, 0.00, 0.00, 0.00
188, 1993.75, 11613.32, 30048.14, 8296.52, 21074.21, 75971.48, 42804.84, 18640.21, 0.00, 0.00, 0.00
189, 1959.56, 11588.95, 30119.38, 8292.74, 21067.46, 76113.66, 43136.92, 18685.52, 0.00, 0.00, 0.00
190, 1834.83, 11466.13, 30080.37, 8187.35, 20945.46, 78193.62, 43455.99, 18614.58, 0.00, 0.00, 0.00
191, 1869.19, 11497.58, 30014.75, 8189.37, 20949.93, 78486.34, 43187.23, 18569.25, 0.00, 0.00, 0.00
192, 1991.88, 11615.84, 30041.66, 8287.04, 21045.26, 76266.20, 42804.80, 18624.70, 0.00, 0.00, 0.00
193, 1983.16, 11607.66, 30113.79, 8301.24, 21056.55, 75888.91, 43058.89, 18675.96, 0.00, 0.00, 0.00
194, 1865.10, 11494.25, 30100.22, 8204.99, 20975.84, 77837.84, 43437.89, 18625.95, 0.00, 0.00, 0.00
195, 1865.21, 11495.43, 30021.65, 8185.16, 20950.36, 78694.68, 43288.78, 18576.09, 0.02, 0.98, 0.13
196, 1995.97, 11626.24, 30011.22, 8288.23, 21049.89, 76617.27, 42850.33, 18624.54, 0.00, 0.00, 0.00
197, 2007.28, 11636.63, 30066.36, 8318.45, 21082.03, 75738.13, 43012.55, 18687.47, 0.00, 0.00, 0.00
198, 1887.05, 11516.20, 30060.88, 8232.46, 20996.47, 77459.25, 43414.20, 18648.08, 0.00, 0.00, 0.00
199, 1830.09, 11457.37, 29957.06, 8161.83, 20928.74, 78803.17, 43363.30, 18556.11, 0.00, 0.00, 0.00
200, 1953.72, 11576.15, 29922.41, 8244.13, 21005.23, 77018.70, 42873.80, 18574.99, 0.00, 0.00, 0.00
201, 2000.70, 11621.36, 30003.33, 8307.67, 21072.73, 75664.54, 42936.22, 18671.64, 0.00, 0.00, 0.00
202, 1900.88, 11524.49, 30031.54, 8240.55, 21011.80, 77063.65, 43348.43, 18652.33, 0.00, 0.00, 0.00
203, 1823.99, 11450.66, 29935.89, 8159.35, 20928.07, 78801.79, 43425.93, 18568.11, 0.00, 0.00, 0.00
204, 1929.96, 11551.11, 29872.57, 8223.34, 21003.35, 77469.55, 42941.63, 18572.69, 0.00, 0.00, 0.00
205, 2014.83, 11633.95, 29950.44, 8309.82, 21088.94, 75708.40, 42886.07, 18666.75, 0.02, 0.97, 0.12
206, 1937.20, 11560.30, 29995.71, 8257.20, 21028.43, 76702.60, 43283.10, 18667.15, 0.00, 0.00, 0.00
207, 1842.83, 11469.55, 29943.02, 8165.87, 20944.32, 78677.06, 43472.38, 18594.17, 0.00, 0.00, 0.00
208, 1903.14, 11534.37, 29866.98, 8188.63, 20977.13, 77901.93, 43032.05, 18553.65, 0.00, 0.00, 0.00
209, 2005.47, 11639.92, 29938.22, 8288.47, 21080.31, 75840.36, 42846.30, 18640.21, 0.00, 0.00, 0.00
210, 1951.62, 11580.26, 30014.84, 8269.97, 21062.12, 76365.42, 43220.76, 18677.74, 0.00, 0.00, 0.00
211, 1835.15, 11467.27, 29957.64, 8168.80, 20941.64, 78455.45, 43489.18, 18600.74, 0.00, 0.00, 0.00
212, 1873.77, 11501.85, 29847.31, 8169.47, 20947.99, 78272.81, 43119.26, 18540.84, 0.00, 0.00, 0.00
213, 1991.27, 11617.45, 29874.63, 8272.83, 21060.35, 76060.91, 42820.20, 18625.13, 0.00, 0.00, 0.00
214, 1960.38, 11596.17, 29923.93, 8271.67, 21052.93, 76105.59, 43139.91, 18672.83, 0.00, 0.00, 0.00
215, 1847.26, 11490.32, 29880.62, 8176.69, 20956.64, 78169.48, 43483.46, 18616.79, 0.02, 0.98, 0.13
216, 1856.29, 11497.58, 29788.91, 8158.36, 20944.79, 78580.05, 43227.18, 18553.04, 0.00, 0.00, 0.00
217, 1979.36, 11617.83, 29805.25, 8256.80, 21054.27, 76386.39, 42824.96, 18610.26, 0.00, 0.00, 0.00
218, 1973.44, 11615.64, 29879.30, 8272.13, 21066.27, 75903.64, 43064.75, 18673.94, 0.00, 0.00, 0.00
219, 1855.60, 11510.21, 29877.67, 8180.16, 20972.95, 77826.24, 43456.13, 18631.03, 0.00, 0.00, 0.00
220, 1830.97, 11489.60, 29781.96, 8139.12, 20939.78, 78801.74, 43321.88, 18555.97, 0.00, 0.00, 0.00
221, 1956.87, 11608.33, 29771.38, 8249.02, 21036.48, 76781.50, 42863.00, 18596.47, 0.00, 0.00, 0.00
222, 1977.06, 11630.57, 29838.26, 8280.65, 21077.98, 75797.34, 43002.48, 18663.44, 0.00, 0.00, 0.00
223, 1873.48, 11529.99, 29852.23, 8198.69, 21003.96, 77453.51, 43407.24, 18633.93, 0.00, 0.00, 0.00
224, 1816.97, 11477.02, 29756.74, 8136.91, 20930.17, 78891.51, 43393.05, 18553.71, 0.00, 0.00, 0.00
225, 1925.83, 11582.47, 29700.62, 8207.02, 20998.19, 77210.32, 42901.40, 18563.48, 0.02, 0.98, 0.13
226, 1980.28, 11633.79, 29765.15, 8270.86, 21063.79, 75758.42, 42931.84, 18645.96, 0.00, 0.00, 0.00
227, 1883.05, 11547.96, 29790.31, 8213.15, 21007.00, 77071.59, 43346.76, 18635.56, 0.00, 0.00, 0.00
228, 1796.74, 11468.25, 29709.16, 8130.11, 20922.15, 78872.44, 43448.95, 18553.87, 0.00, 0.00, 0.00
229, 1889.53, 11562.71, 29640.09, 8180.43, 20983.24, 77654.72, 42966.15, 18540.77, 0.00, 0.00, 0.00
230, 1977.21, 11646.06, 29704.37, 8264.24, 21072.35, 75798.83, 42871.40, 18626.56, 0.00, 0.00, 0.00
231, 1908.06, 11577.89, 29768.23, 8227.57, 21043.34, 76688.85, 43278.81, 18647.75, 0.00, 0.00, 0.00
232, 1799.49, 11480.91, 29709.33, 8123.83, 20938.38, 78714.03, 43486.79, 18563.17, 0.00, 0.00, 0.00
233, 1865.99, 11545.50, 29633.47, 8148.02, 20955.41, 78062.10, 43048.88, 18522.46, 0.00, 0.00, 0.00
234, 1963.24, 11640.12, 29687.77, 8233.51, 21052.86, 75959.79, 42833.09, 18603.02, 0.00, 0.00, 0.00
235, 1912.64, 11598.50, 29756.83, 8214.18, 21041.28, 76396.00, 43199.26, 18639.25, 0.02, 0.98, 0.13
236, 1797.37, 11499.46, 29713.58, 8122.18, 20945.91, 78503.03, 43496.88, 18581.83, 0.00, 0.00, 0.00
237, 1825.47, 11526.88, 29612.10, 8118.13, 20950.67, 78449.79, 43155.88, 18526.49, 0.00, 0.00, 0.00
238, 1938.48, 11623.53, 29621.00, 8211.11, 21040.12, 76223.13, 42818.99, 18589.61, 0.00, 0.00, 0.00
239, 1919.75, 11605.00, 29687.45, 8216.79, 21046.27, 76130.24, 43118.01, 18640.68, 0.00, 0.00, 0.00
240, 1798.69, 11494.88, 29661.57, 8115.94, 20954.85, 78181.77, 43475.15, 18578.08, 0.00, 0.00, 0.00
241, 1796.14, 11498.16, 29568.47, 8084.65, 20937.64, 78724.67, 43237.39, 18515.36, 0.00, 0.00, 0.00
242, 1926.68, 11625.46, 29591.56, 8186.08, 21047.10, 76558.09, 42828.82, 18573.32, 0.00, 0.00, 0.00
243, 1930.65, 11628.74, 29688.61, 8211.38, 21053.24, 75956.32, 43049.88, 18635.74, 0.00, 0.00, 0.00
244, 1809.80, 11511.93, 29689.11, 8119.85, 20964.88, 77820.50, 43442.49, 18591.82, 0.00, 0.00, 0.00
245, 1762.73, 11469.06, 29576.41, 8056.73, 20899.39, 78916.07, 43320.07, 18500.49, 0.02, 0.98, 0.12
246, 1885.70, 11587.50, 29545.74, 8146.36, 20985.92, 76940.63, 42842.39, 18536.50, 0.00, 0.00, 0.00
247, 1938.30, 11640.36, 29641.29, 8210.87, 21059.43, 75856.05, 42983.72, 18634.85, 0.00, 0.00, 0.00
248, 1835.37, 11543.02, 29669.08, 8137.33, 20982.21, 77443.61, 43403.49, 18613.44, 0.00, 0.00, 0.00
249, 1764.13, 11470.87, 29580.59, 8057.09, 20905.47, 78984.16, 43412.32, 18528.12, 0.00, 0.00, 0.00
250, 1877.28, 11580.80, 29551.29, 8126.85, 20984.80, 77388.02, 42918.95, 18535.16, 0.00, 0.00, 0.00
251, 1929.34, 11630.15, 29632.96, 8182.44, 21047.34, 75847.54, 42920.96, 18608.01, 0.00, 0.00, 0.00
252, 1848.58, 11561.89, 29678.13, 8124.88, 20988.13, 77069.44, 43332.99, 18609.48, 0.00, 0.00, 0.00
253, 1772.98, 11475.30, 29615.37, 8049.76, 20907.80, 78919.98, 43464.04, 18533.75, 0.00, 0.00, 0.00
254, 1861.30, 11560.12, 29565.28, 8101.57, 20963.57, 77807.52, 42995.41, 18514.87, 0.00, 0.00, 0.00
255, 1952.45, 11654.15, 29643.62, 8189.25, 21062.25, 75894.97, 42875.96, 18604.74, 0.02, 0.98, 0.13
0, 1885.79, 11587.08, 29702.18, 8153.04, 21021.32, 76696.08, 43266.09, 18618.02, 0.00, 0.00, 0.00
1, 1771.02, 11483.81, 29646.01, 8059.17, 20911.42, 78751.14, 43492.07, 18541.87, 0.00, 0.00, 0.00
2, 1832.73, 11541.23, 29564.05, 8087.60, 20945.53, 78217.83, 43082.00, 18510.73, 0.00, 0.00, 0.00
3, 1941.96, 11643.31, 29613.31, 8185.63, 21052.44, 76072.10, 42847.76, 18592.20, 0.00, 0.00, 0.00
4, 1891.25, 11596.82, 29671.92, 8161.05, 21024.07, 76383.46, 43189.92, 18614.15, 0.00, 0.00, 0.00
5, 1770.71, 11492.01, 29632.11, 8062.36, 20924.63, 78477.84, 43495.22, 18551.16, 0.00, 0.00, 0.00
6, 1798.96, 11525.63, 29542.99, 8066.48, 20926.89, 78570.16, 43179.07, 18495.38, 0.00, 0.00, 0.00
7, 1916.01, 11624.31, 29562.97, 8164.49, 21035.40, 76352.22, 42826.14, 18555.01, 0.00, 0.00, 0.00
8, 1910.81, 11618.57, 29629.79, 8183.71, 21054.83, 76159.41, 43118.04, 18622.38, 0.00, 0.00, 0.00
9, 1796.68, 11519.17, 29610.83, 8092.69, 20937.64, 78178.82, 43485.96, 18569.87, 0.02, 0.98, 0.12
10, 1780.52, 11512.22, 29505.96, 8053.51, 20903.11, 78845.13, 43268.04, 18487.24, 0.00, 0.00, 0.00
11, 1909.98, 11634.02, 29514.27, 8159.46, 21014.91, 76693.57, 42840.83, 18543.61, 0.00, 0.00, 0.00
12, 1919.01, 11633.30, 29606.02, 8190.10, 21033.19, 75992.27, 43041.39, 18606.55, 0.00, 0.00, 0.00
13, 1811.23, 11533.08, 29623.41, 8109.12, 20945.84, 77817.02, 43441.57, 18571.93, 0.00, 0.00, 0.00
14, 1767.24, 11492.35, 29537.67, 8049.80, 20889.80, 78998.51, 43358.18, 18490.19, 0.00, 0.00, 0.00
15, 1889.08, 11604.49, 29525.38, 8127.97, 20981.98, 77101.55, 42876.68, 18509.77, 0.00, 0.00, 0.00
16, 1949.94, 11648.34, 29615.63, 8183.11, 21055.14, 75892.87, 42977.91, 18595.89, 0.00, 0.00, 0.00
17, 1837.74, 11552.81, 29647.29, 8109.19, 20973.60, 77414.33, 43388.54, 18573.43, 0.00, 0.00, 0.00
18, 1758.12, 11504.40, 29578.71, 8041.08, 20898.57, 79019.60, 43424.32, 18495.69, 0.00, 0.00, 0.00
19, 1858.19, 11589.71, 29540.76, 8105.44, 20965.11, 77521.19, 42930.79, 18488.56, 0.02, 0.98, 0.12
20, 1924.33, 11642.44, 29619.17, 8174.14, 21037.53, 75884.91, 42907.61, 18569.29, 0.00, 0.00, 0.00
21, 1844.11, 11563.41, 29670.64, 8118.80, 20977.76, 77026.32, 43312.00, 18571.37, 0.00, 0.00, 0.00
22, 1749.54, 11465.95, 29596.46, 8020.68, 20877.60, 78950.38, 43451.86, 18488.16, 0.00, 0.00, 0.00
23, 1845.58, 11555.61, 29535.46, 8071.95, 20935.78, 77966.30, 42993.45, 18478.70, 0.00, 0.00, 0.00
24, 1933.49, 11640.18, 29588.81, 8154.50, 21027.49, 76003.15, 42854.98, 18561.67, 0.00, 0.00, 0.00
25, 1869.90, 11586.21, 29646.55, 8123.38, 20993.61, 76710.65, 43248.75, 18581.03, 0.00, 0.00, 0.00
26, 1761.56, 11492.77, 29593.37, 8032.46, 20896.96, 78781.13, 43495.58, 18512.92, 0.00, 0.00, 0.00
27, 1820.28, 11559.90, 29512.01, 8057.38, 20921.61, 78358.46, 43100.75, 18467.37, 0.00, 0.00, 0.00
28, 1929.56, 11650.02, 29561.25, 8159.41, 21022.69, 76176.80, 42846.30, 18544.82, 0.02, 0.99, 0.12
29, 1900.08, 11609.67, 29654.60, 8167.42, 21025.82, 76386.91, 43202.25, 18604.70, 0.00, 0.00, 0.00
30, 1783.11, 11501.56, 29645.14, 8073.83, 20926.98, 78489.16, 43526.02, 18544.01, 0.00, 0.00, 0.00
31, 1786.33, 11507.93, 29540.82, 8050.18, 20900.45, 78689.09, 43200.42, 18461.82, 0.00, 0.00, 0.00
32, 1915.68, 11633.05, 29556.67, 8150.70, 21004.47, 76457.73, 42826.75, 18527.63, 0.00, 0.00, 0.00
33, 1894.80, 11623.22, 29632.71, 8161.54, 21015.80, 76166.95, 43098.90, 18586.30, 0.00, 0.00, 0.00
34, 1775.73, 11506.81, 29610.27, 8072.13, 20919.51, 78167.38, 43473.56, 18534.74, 0.00, 0.00, 0.00
35, 1771.69, 11491.61, 29516.06, 8038.51, 20887.15, 78950.56, 43294.19, 18463.63, 0.00, 0.00, 0.00
36, 1890.87, 11607.89, 29526.79, 8131.56, 20982.54, 76831.98, 42847.80, 18506.06, 0.00, 0.00, 0.00
37, 1895.81, 11616.96, 29615.23, 8161.98, 21016.65, 76024.85, 43025.61, 18572.71, 0.00, 0.00, 0.00
38, 1773.79, 11499.57, 29612.35, 8078.10, 20933.59, 77805.68, 43427.40, 18538.20, 0.02, 0.99, 0.12
39, 1723.79, 11451.00, 29517.40, 8024.21, 20879.19, 79094.69, 43368.29, 18464.17, 0.00, 0.00, 0.00
40, 1838.05, 11554.87, 29496.46, 8108.74, 20966.58, 77253.93, 42873.24, 18486.01, 0.00, 0.00, 0.00
41, 1870.04, 11580.95, 29561.99, 8153.98, 21021.93, 75946.17, 42934.82, 18563.01, 0.00, 0.00, 0.00
42, 1754.84, 11473.60, 29588.28, 8075.66, 20955.63, 77399.95, 43353.75, 18543.50, 0.00, 0.00, 0.00
43, 1669.85, 11387.07, 29504.53, 7984.69, 20875.43, 79099.22, 43410.02, 18451.12, 0.00, 0.00, 0.00
44, 1765.74, 11475.12, 29466.77, 8045.69, 20965.58, 77680.47, 42922.79, 18466.54, 0.00, 0.00, 0.00
45, 1819.21, 11522.19, 29555.24, 8111.29, 21038.49, 75956.27, 42885.15, 18555.68, 0.00, 0.00, 0.00
46, 1722.98, 11425.67, 29630.30, 8043.74, 20973.76, 77013.36, 43290.21, 18544.10, 0.00, 0.00, 0.00
47, 1623.70, 11327.33, 29592.08, 7942.69, 20888.08, 78978.79, 43468.42, 18468.26, 0.00, 0.00, 0.00
48, 1689.41, 11382.25, 29550.66, 7962.34, 20930.35, 78110.83, 43020.45, 18442.31, 0.02, 0.99, 0.12
49, 1779.33, 11463.38, 29638.95, 8039.10, 21030.04, 76067.63, 42854.64, 18523.67, 0.00, 0.00, 0.00
50, 1723.16, 11408.08, 29709.67, 8000.87, 21015.94, 76655.84, 43233.61, 18547.54, 0.00, 0.00, 0.00
51, 1608.19, 11292.46, 29673.33, 7892.04, 20913.83, 78768.98, 43506.53, 18475.35, 0.00, 0.00, 0.00
52, 1659.37, 11329.94, 29602.85, 7890.10, 20912.54, 78501.85, 43126.97, 18418.35, 0.00, 0.00, 0.00
53, 1788.68, 11447.71, 29654.33, 7987.55, 21011.18, 76281.05, 42835.22, 18493.03, 0.00, 0.00, 0.00
54, 1768.22, 11436.63, 29731.42, 7978.25, 21004.29, 76375.62, 43160.90, 18535.09, 0.00, 0.00, 0.00
55, 1660.60, 11337.43, 29705.45, 7879.86, 20901.38, 78446.77, 43484.16, 18465.58, 0.00, 0.00, 0.00
56, 1672.67, 11340.13, 29603.50, 7849.44, 20885.20, 78775.03, 43199.24, 18395.64, 0.00, 0.00, 0.00
57, 1809.66, 11459.05, 29625.94, 7948.57, 21000.36, 76561.36, 42822.16, 18465.45, 0.00, 0.00, 0.00
58, 1807.32, 11460.86, 29690.96, 7961.27, 21023.09, 76142.53, 43066.63, 18518.40, 0.02, 0.97, 0.12
59, 1710.40, 11366.71, 29672.79, 7876.67, 20942.78, 78105.62, 43460.20, 18479.21, 0.00, 0.00, 0.00
60, 1694.96, 11343.49, 29548.27, 7829.41, 20888.13, 79000.83, 43291.17, 18391.91, 0.00, 0.00, 0.00
61, 1836.20, 11479.01, 29497.75, 7923.27, 20991.89, 76914.67, 42832.38, 18441.53, 0.00, 0.00, 0.00
62, 1886.11, 11531.91, 29584.43, 7974.27, 21043.54, 75985.83, 43001.80, 18525.10, 0.00, 0.00, 0.00
63, 1791.36, 11446.57, 29607.28, 7891.57, 20961.64, 77691.33, 43410.15, 18495.11, 0.00, 0.00, 0.00
64, 1743.75, 11382.25, 29491.43, 7801.99, 20899.89, 79080.73, 43377.34, 18413.14, 0.00, 0.00, 0.00
65, 1867.91, 11490.47, 29465.48, 7878.74, 20975.75, 77318.50, 42883.52, 18428.59, 0.00, 0.00, 0.00
66, 1933.14, 11556.30, 29603.83, 7944.68, 21046.47, 75929.61, 42938.44, 18513.08, 0.00, 0.00, 0.00
67, 1850.93, 11483.77, 29680.23, 7881.76, 20980.55, 77309.70, 43361.60, 18507.47, 0.00, 0.00, 0.00
68, 1780.00, 11418.01, 29598.45, 7798.64, 20888.02, 79065.07, 43445.04, 18422.66, 0.02, 0.97, 0.12
69, 1883.00, 11524.36, 29509.98, 7853.89, 20948.37, 77753.80, 42955.38, 18407.06, 0.00, 0.00, 0.00
70, 1968.25, 11596.08, 29555.49, 7934.22, 21044.50, 75961.82, 42887.45, 18492.56, 0.00, 0.00, 0.00
71, 1902.98, 11523.69, 29592.57, 7894.55, 21005.30, 76915.26, 43292.55, 18502.30, 0.00, 0.00, 0.00
72, 1797.84, 11424.60, 29507.70, 7797.43, 20900.31, 78919.34, 43487.57, 18419.96, 0.00, 0.00, 0.00
73, 1871.00, 11491.68, 29415.63, 7835.87, 20933.77, 78166.04, 43043.11, 18383.17, 0.00, 0.00, 0.00
74, 1979.87, 11597.29, 29445.85, 7937.53, 21037.26, 76079.10, 42845.88, 18467.30, 0.00, 0.00, 0.00
75, 1927.86, 11552.61, 29451.73, 7919.76, 21020.54, 76582.80, 43216.80, 18496.04, 0.00, 0.00, 0.00
76, 1817.38, 11446.13, 29367.20, 7834.02, 20907.98, 78687.50, 43488.76, 18423.45, 0.00, 0.00, 0.00
77, 1867.00, 11495.88, 29263.84, 7855.10, 20911.76, 78529.12, 43129.12, 18372.08, 0.00, 0.00, 0.00
78, 1990.60, 11615.15, 29295.07, 7965.67, 21016.38, 76305.91, 42817.87, 18446.18, 0.02, 0.98, 0.11
79, 1966.26, 11592.53, 29372.72, 7971.39, 21023.49, 76318.20, 43133.86, 18502.01, 0.00, 0.00, 0.00
80, 1845.40, 11479.74, 29343.66, 7876.89, 20938.71, 78396.41, 43482.19, 18438.91, 0.00, 0.00, 0.00
81, 1841.69, 11466.91, 29225.33, 7847.65, 20888.33, 78844.50, 43218.01, 18354.83, 0.00, 0.00, 0.00
82, 1972.25, 11592.69, 29227.23, 7953.44, 20987.86, 76623.56, 42806.03, 18413.43, 0.00, 0.00, 0.00
83, 1978.04, 11606.92, 29301.64, 7984.31, 21022.51, 76105.97, 43053.01, 18490.30, 0.00, 0.00, 0.00
84, 1862.55, 11495.41, 29290.06, 7898.48, 20935.31, 78015.43, 43451.36, 18445.20, 0.00, 0.00, 0.00
85, 1842.21, 11469.98, 29198.78, 7861.06, 20892.44, 79011.91, 43317.77, 18368.42, 0.00, 0.00, 0.00
86, 1969.84, 11592.35, 29175.62, 7953.29, 20983.88, 77000.55, 42845.36, 18396.00, 0.00, 0.00, 0.00
87, 2010.16, 11633.95, 29244.26, 8008.03, 21040.39, 75981.78, 42993.45, 18477.07, 0.00, 0.00, 0.00
88, 1896.52, 11537.10, 29247.01, 7934.11, 20961.26, 77637.62, 43406.30, 18445.51, 0.02, 0.98, 0.12
89, 1837.16, 11482.40, 29155.32, 7869.76, 20896.51, 79100.41, 43393.52, 18365.13, 0.00, 0.00, 0.00
90, 1948.49, 11573.62, 29120.21, 7942.22, 20974.74, 77426.75, 42896.75, 18375.86, 0.00, 0.00, 0.00
91, 2002.11, 11617.97, 29209.95, 8001.88, 21035.40, 75952.66, 42918.61, 18457.31, 0.00, 0.00, 0.00
92, 1921.62, 11545.93, 29252.26, 7949.60, 20982.50, 77240.38, 43337.21, 18454.47, 0.00, 0.00, 0.00
93, 1839.08, 11470.29, 29182.19, 7863.28, 20910.44, 79056.20, 43453.27, 18374.14, 0.00, 0.00, 0.00
94, 1926.23, 11557.21, 29127.96, 7905.79, 20942.40, 77857.36, 42968.30, 18356.62, 0.00, 0.00, 0.00
95, 2018.56, 11646.02, 29204.92, 7993.10, 21031.83, 75989.40, 42870.11, 18449.49, 0.00, 0.00, 0.00
96, 1949.09, 11580.53, 29264.47, 7950.40, 20986.50, 76862.17, 43268.46, 18460.60, 0.00, 0.00, 0.00
97, 1835.61, 11472.70, 29201.50, 7847.67, 20883.35, 78884.20, 43477.14, 18378.43, 0.00, 0.00, 0.00
98, 1905.73, 11541.68, 29114.22, 7880.29, 20921.57, 78246.62, 43057.86, 18347.76, 0.02, 0.99, 0.12
99, 2011.01, 11639.76, 29138.43, 7978.19, 21031.85, 76109.21, 42841.36, 18429.15, 0.00, 0.00, 0.00
100, 1959.89, 11587.46, 29185.74, 7958.16, 21012.79, 76501.50, 43198.48, 18453.02, 0.00, 0.00, 0.00
101, 1852.96, 11486.09, 29158.25, 7870.41, 20919.09, 78614.79, 43506.46, 18386.12, 0.00, 0.00, 0.00
102, 1879.85, 11515.46, 29062.79, 7869.58, 20911.22, 78588.77, 43162.65, 18334.22, 0.00, 0.00, 0.00
103, 1995.81, 11627.33, 29089.97, 7969.98, 21014.97, 76365.45, 42826.12, 18404.45, 0.00, 0.00, 0.00
104, 1977.26, 11612.25, 29174.55, 7988.36, 21022.75, 76255.56, 43123.84, 18454.05, 0.00, 0.00, 0.00
105, 1869.05, 11514.68, 29163.44, 7913.34, 20931.49, 78292.55, 43483.39, 18405.57, 0.00, 0.00, 0.00
106, 1869.34, 11511.10, 29057.94, 7892.94, 20903.11, 78863.63, 43256.48, 18340.97, 0.00, 0.00, 0.00
107, 1989.86, 11623.64, 29035.18, 7981.36, 20985.22, 76689.70, 42823.88, 18386.66, 0.00, 0.00, 0.00
108, 1990.67, 11624.25, 29074.84, 8001.61, 21009.12, 76065.94, 43034.21, 18448.03, 0.02, 0.98, 0.12
109, 1876.12, 11518.88, 29053.49, 7914.15, 20922.86, 77934.09, 43430.67, 18404.81, 0.00, 0.00, 0.00
110, 1855.37, 11506.14, 28961.42, 7876.44, 20895.10, 79048.15, 43328.25, 18333.17, 0.00, 0.00, 0.00
111, 1976.70, 11619.96, 28932.81, 7962.38, 20989.14, 77095.21, 42852.92, 18361.85, 0.00, 0.00, 0.00
112, 2011.55, 11634.53, 29016.05, 8013.17, 21037.69, 75969.30, 42967.74, 18441.62, 0.00, 0.00, 0.00
113, 1905.15, 11531.51, 29026.78, 7933.89, 20954.40, 77548.05, 43382.05, 18412.58, 0.00, 0.00, 0.00
114, 1842.95, 11480.17, 28943.45, 7865.49, 20883.08, 79088.25, 43400.22, 18336.43, 0.00, 0.00, 0.00
115, 1952.09, 11593.02, 28902.44, 7944.37, 20958.92, 77507.02, 42912.84, 18349.24, 0.00, 0.00, 0.00
116, 2012.01, 11651.29, 28961.67, 8014.31, 21027.00, 75950.17, 42910.97, 18429.37, 0.00, 0.00, 0.00
117, 1926.65, 11570.47, 29001.81, 7966.72, 20974.54, 77158.82, 43330.55, 18428.23, 0.02, 0.98, 0.11
118, 1835.23, 11481.91, 28930.71, 7878.63, 20893.85, 79034.11, 43464.66, 18350.80, 0.00, 0.00, 0.00
119, 1917.96, 11561.75, 28869.38, 7919.96, 20935.07, 77953.23, 42991.25, 18330.64, 0.00, 0.00, 0.00
120, 2008.37, 11652.30, 28936.25, 8002.51, 21016.90, 76029.27, 42864.16, 18422.73, 0.00, 0.00, 0.00
121, 1943.69, 11590.74, 28991.96, 7962.72, 20986.86, 76807.59, 43255.81, 18443.74, 0.00, 0.00, 0.00
122, 1838.12, 11492.35, 28929.44, 7865.49, 20895.24, 78864.04, 43487.98, 18365.27, 0.00, 0.00, 0.00
123, 1898.15, 11551.76, 28844.95, 7886.99, 20918.15, 78354.82, 43068.03, 18320.83, 0.00, 0.00, 0.00
124, 2004.88, 11654.15, 28900.27, 7980.00, 21019.83, 76196.42, 42816.11, 18394.17, 0.00, 0.00, 0.00
125, 1951.82, 11608.24, 28966.25, 7959.30, 21003.04, 76495.04, 43149.68, 18423.54, 0.00, 0.00, 0.00
126, 1832.57, 11487.25, 28927.34, 7860.44, 20896.38, 78598.66, 43453.51, 18356.55, 0.00, 0.00, 0.00
127, 1853.70, 11501.18, 28833.23, 7855.21, 20877.42, 78713.38, 43119.24, 18287.73, 0.02, 0.98, 0.12
128, 1976.16, 11631.58, 28857.84, 7965.92, 20991.77, 76478.50, 42759.13, 18352.26, 0.00, 0.00, 0.00
129, 1970.40, 11630.10, 28952.97, 7987.82, 21011.31, 76256.75, 43058.45, 18414.93, 0.00, 0.00, 0.00
130, 1868.78, 11503.68, 28966.14, 7910.35, 20916.31, 78283.36, 43446.07, 18370.81, 0.00, 0.00, 0.00
131, 1858.99, 11493.20, 28889.54, 7885.23, 20895.93, 78975.70, 43245.35, 18301.90, 0.00, 0.00, 0.00
132, 1974.44, 11619.73, 28902.50, 7982.14, 20987.24, 76836.71, 42812.82, 18350.09, 0.00, 0.00, 0.00
133, 1985.93, 11632.70, 28984.94, 8013.41, 21010.37, 76101.18, 43011.04, 18413.61, 0.00, 0.00, 0.00
134, 1877.46, 11529.05, 29002.91, 7929.28, 20930.04, 77921.60, 43426.22, 18378.05, 0.00, 0.00, 0.00
135, 1835.55, 11494.79, 28906.68, 7866.56, 20881.76, 79139.61, 43349.62, 18299.53, 0.00, 0.00, 0.00
136, 1960.14, 11611.04, 28886.32, 7951.30, 20972.84, 77235.02, 42865.44, 18327.51, 0.00, 0.00, 0.00
137, 2005.42, 11651.83, 28982.57, 8007.09, 21030.22, 75995.99, 42959.56, 18406.88, 0.02, 0.98, 0.12
138, 1900.97, 11556.88, 29009.63, 7926.55, 20943.14, 77518.35, 43374.41, 18379.37, 0.00, 0.00, 0.00
139, 1834.03, 11492.24, 28935.85, 7846.98, 20861.49, 79154.63, 43406.73, 18291.01, 0.00, 0.00, 0.00
140, 1939.64, 11581.85, 28893.07, 7915.89, 20931.40, 77649.20, 42904.26, 18297.23, 0.00, 0.00, 0.00
141, 2007.92, 11650.09, 28958.34, 7997.54, 21012.07, 75995.62, 42880.30, 18387.97, 0.00, 0.00, 0.00
142, 1921.83, 11573.98, 28997.30, 7946.13, 20961.60, 77137.61, 43296.13, 18386.43, 0.00, 0.00, 0.00
143, 1833.33, 11491.70, 28941.33, 7863.63, 20874.49, 79075.09, 43454.09, 18307.35, 0.00, 0.00, 0.00
144, 1916.91, 11569.62, 28889.61, 7912.50, 20924.83, 78100.52, 42993.87, 18286.32, 0.00, 0.00, 0.00
145, 1998.27, 11647.29, 28948.21, 7993.23, 21022.91, 76115.96, 42839.71, 18364.66, 0.00, 0.00, 0.00
146, 1939.33, 11594.92, 29002.79, 7962.88, 20999.42, 76804.08, 43224.85, 18387.37, 0.00, 0.00, 0.00
147, 1833.87, 11502.86, 28948.23, 7867.84, 20887.12, 78886.86, 43473.56, 18313.59, 0.01, 0.98, 0.12
148, 1887.05, 11559.52, 28867.23, 7885.23, 20902.41, 78503.44, 43079.50, 18270.34, 0.00, 0.00, 0.00
149, 1997.06, 11654.47, 28895.60, 7980.00, 20999.20, 76310.15, 42808.42, 18346.54, 0.00, 0.00, 0.00
150, 1960.40, 11613.94, 28951.16, 7972.55, 20983.17, 76504.14, 43144.36, 18378.30, 0.00, 0.00, 0.00
151, 1840.49, 11502.63, 28911.06, 7878.50, 20884.33, 78603.80, 43472.78, 18317.34, 0.00, 0.00, 0.00
152, 1853.36, 11521.61, 28792.26, 7868.04, 20874.43, 78831.76, 43176.77, 18258.87, 0.00, 0.00, 0.00
153, 1975.27, 11638.62, 28795.39, 7968.82, 20986.74, 76599.09, 42803.23, 18323.18, 0.00, 0.00, 0.00
154, 1964.18, 11628.99, 28861.78, 7979.62, 20998.64, 76278.34, 43077.38, 18385.56, 0.00, 0.00, 0.00
155, 1841.38, 11525.59, 28830.91, 7885.67, 20898.23, 78270.29, 43455.50, 18335.38, 0.00, 0.00, 0.00
156, 1825.27, 11511.82, 28731.74, 7850.60, 20865.55, 79088.83, 43278.79, 18264.53, 0.00, 0.00, 0.00
157, 1951.62, 11622.26, 28734.71, 7947.03, 20959.54, 76981.71, 42821.34, 18308.25, 0.02, 0.98, 0.12
158, 1963.62, 11637.52, 28816.52, 7977.47, 21003.29, 76135.65, 42993.33, 18375.41, 0.00, 0.00, 0.00
159, 1853.21, 11538.39, 28820.56, 7894.66, 20923.74, 77900.97, 43406.15, 18346.45, 0.00, 0.00, 0.00
160, 1804.26, 11495.46, 28724.47, 7833.64, 20854.18, 79232.26, 43351.43, 18266.56, 0.00, 0.00, 0.00
161, 1927.82, 11615.80, 28694.92, 7917.30, 20935.58, 77397.67, 42854.20, 18287.55, 0.00, 0.00, 0.00
162, 1973.41, 11661.80, 28772.01, 7976.26, 20995.51, 76059.38, 42923.46, 18366.52, 0.00, 0.00, 0.00
163, 1866.77, 11564.59, 28798.72, 7900.69, 20931.58, 77519.16, 43345.06, 18344.21, 0.00, 0.00, 0.00
164, 1789.77, 11492.28, 28719.35, 7821.19, 20849.64, 79234.61, 43411.73, 18263.12, 0.00, 0.00, 0.00
165, 1893.95, 11591.35, 28671.65, 7882.14, 20919.60, 77817.55, 42920.40, 18262.98, 0.00, 0.00, 0.00
166, 1957.30, 11658.04, 28741.06, 7946.56, 20996.40, 76080.22, 42873.53, 18345.48, 0.00, 0.00, 0.00
167, 1861.52, 11575.43, 28785.13, 7882.32, 20936.61, 77129.66, 43274.20, 18335.00, 0.02, 0.99, 0.12
168, 1760.94, 11483.30, 28725.30, 7791.50, 20847.99, 79116.19, 43451.41, 18257.66, 0.00, 0.00, 0.00
169, 1847.35, 11555.05, 28659.94, 7838.04, 20906.59, 78260.59, 42999.48, 18235.36, 0.00, 0.00, 0.00
170, 1947.57, 11649.42, 28718.50, 7932.28, 20999.15, 76206.70, 42821.38, 18319.71, 0.00, 0.00, 0.00
171, 1891.32, 11604.33, 28775.57, 7908.00, 20961.38, 76781.64, 43207.11, 18348.44, 0.00, 0.00, 0.00
172, 1776.76, 11501.27, 28716.92, 7807.87, 20860.41, 78883.62, 43472.04, 18267.92, 0.00, 0.00, 0.00
173, 1827.34, 11541.23, 28633.14, 7822.64, 20864.55, 78634.15, 43087.99, 18215.13, 0.00, 0.00, 0.00
174, 1942.14, 11646.17, 28674.85, 7921.30, 20965.00, 76421.73, 42795.14, 18293.94, 0.00, 0.00, 0.00
175, 1908.66, 11625.83, 28754.58, 7917.59, 20966.94, 76499.06, 43123.62, 18344.93, 0.00, 0.00, 0.00
176, 1788.39, 11512.80, 28741.15, 7816.74, 20875.93, 78603.28, 43462.18, 18277.15, 0.00, 0.00, 0.00
177, 1798.73, 11516.80, 28655.79, 7792.85, 20858.29, 78971.37, 43186.88, 18211.22, 0.02, 0.98, 0.12
178, 1915.95, 11632.41, 28679.16, 7884.78, 20953.73, 76743.84, 42795.34, 18277.31, 0.00, 0.00, 0.00
179, 1911.30, 11640.05, 28756.03, 7898.88, 20974.27, 76295.98, 43050.53, 18339.20, 0.00, 0.00, 0.00
180, 1801.24, 11537.61, 28738.75, 7812.74, 20887.01, 78244.05, 43446.54, 18300.80, 0.00, 0.00, 0.00
181, 1772.54, 11499.55, 28629.12, 7767.99, 20840.47, 79178.37, 43291.84, 18217.30, 0.00, 0.00, 0.00
182, 1900.75, 11620.40, 28620.31, 7862.94, 20939.81, 77120.87, 42826.75, 18261.02, 0.00, 0.00, 0.00
183, 1924.49, 11650.35, 28699.48, 7896.40, 20982.77, 76169.53, 42982.20, 18334.46, 0.00, 0.00, 0.00
184, 1812.57, 11543.47, 28721.90, 7807.67, 20904.27, 77873.84, 43394.48, 18300.36, 0.00, 0.00, 0.00
185, 1751.30, 11479.59, 28628.45, 7731.71, 20833.68, 79288.52, 43358.52, 18214.19, 0.00, 0.00, 0.00
186, 1872.36, 11594.97, 28606.05, 7812.45, 20910.84, 77542.55, 42860.05, 18232.09, 0.00, 0.00, 0.00
187, 1929.60, 11661.04, 28710.10, 7880.69, 20983.15, 76126.24, 42913.27, 18323.74, 0.02, 0.98, 0.12
188, 1833.58, 11575.05, 28757.62, 7814.59, 20920.25, 77488.13, 43336.48, 18315.94, 0.00, 0.00, 0.00
189, 1749.72, 11485.24, 28675.63, 7724.49, 20834.22, 79272.38, 43424.66, 18225.39, 0.00, 0.00, 0.00
190, 1841.49, 11564.81, 28626.79, 7774.96, 20892.20, 77974.02, 42927.06, 18212.27, 0.00, 0.00, 0.00
191, 1927.12, 11646.02, 28716.16, 7862.70, 20976.11, 76157.71, 42857.05, 18309.03, 0.00, 0.00, 0.00
192, 1855.06, 11586.12, 28773.71, 7821.68, 20937.19, 77113.80, 43268.98, 18323.33, 0.00, 0.00, 0.00
193, 1748.11, 11485.82, 28723.82, 7726.28, 20845.64, 79135.16, 43466.03, 18239.94, 0.00, 0.00, 0.00
194, 1810.60, 11541.41, 28653.66, 7753.44, 20877.27, 78412.51, 43022.32, 18202.43, 0.00, 0.00, 0.00
195, 1916.08, 11644.21, 28712.33, 7853.26, 20966.25, 76314.42, 42816.91, 18284.13, 0.00, 0.00, 0.00
196, 1875.18, 11611.10, 28781.16, 7846.29, 20941.93, 76781.66, 43184.75, 18311.64, 0.02, 0.99, 0.12
197, 1754.63, 11492.51, 28725.88, 7742.78, 20839.22, 78899.13, 43468.11, 18230.57, 0.00, 0.00, 0.00
198, 1798.44, 11535.65, 28650.58, 7751.99, 20839.11, 78781.65, 43108.29, 18194.59, 0.00, 0.00, 0.00
199, 1922.27, 11654.94, 28705.12, 7858.40, 20944.57, 76542.63, 42791.86, 18272.13, 0.00, 0.00, 0.00
200, 1888.01, 11620.63, 28775.46, 7852.75, 20959.56, 76512.99, 43100.89, 18312.25, 0.00, 0.00, 0.00
201, 1774.24, 11515.04, 28772.62, 7762.96, 20865.60, 78591.26, 43464.08, 18267.59, 0.00, 0.00, 0.00
202, 1776.92, 11524.04, 28676.64, 7737.59, 20831.71, 79079.77, 43216.38, 18199.08, 0.00, 0.00, 0.00
203, 1897.35, 11633.39, 28679.05, 7830.13, 20939.14, 76860.85, 42798.76, 18254.47, 0.00, 0.00, 0.00
204, 1892.32, 11626.46, 28755.50, 7843.43, 20977.89, 76319.88, 43030.84, 18312.16, 0.00, 0.00, 0.00
205, 1783.96, 11526.79, 28774.58, 7752.55, 20889.38, 78240.71, 43424.57, 18265.55, 0.00, 0.00, 0.00
206, 1739.93, 11496.24, 28682.96, 7692.31, 20815.04, 79269.25, 43286.57, 18175.88, 0.02, 0.99, 0.12
207, 1863.73, 11620.34, 28661.24, 7782.05, 20903.93, 77246.66, 42815.08, 18214.88, 0.00, 0.00, 0.00
208, 1906.42, 11646.89, 28748.32, 7834.22, 20964.46, 76201.09, 42966.45, 18309.05, 0.00, 0.00, 0.00
209, 1799.63, 11541.97, 28763.12, 7750.56, 20894.39, 77836.28, 43386.70, 18285.07, 0.00, 0.00, 0.00
210, 1741.69, 11482.38, 28677.78, 7675.95, 20828.18, 79340.48, 43385.07, 18202.05, 0.00, 0.00, 0.00
211, 1849.34, 11586.16, 28640.27, 7742.47, 20904.83, 77696.78, 42889.69, 18213.07, 0.00, 0.00, 0.00
212, 1911.01, 11645.06, 28722.55, 7807.04, 20973.71, 76176.55, 42908.15, 18304.71, 0.00, 0.00, 0.00
213, 1817.76, 11559.79, 28751.23, 7739.11, 20912.31, 77461.24, 43326.87, 18295.88, 0.00, 0.00, 0.00
214, 1730.09, 11475.36, 28666.78, 7647.29, 20824.09, 79310.60, 43434.45, 18205.79, 0.00, 0.00, 0.00
215, 1822.18, 11565.06, 28611.24, 7700.02, 20875.70, 78135.05, 42945.66, 18192.11, 0.00, 0.00, 0.00
216, 1907.12, 11649.30, 28687.30, 7785.00, 20968.84, 76238.69, 42842.04, 18288.51, 0.02, 0.98, 0.12
217, 1837.00, 11587.75, 28738.93, 7739.09, 20931.11, 77093.55, 43243.07, 18298.12, 0.00, 0.00, 0.00
218, 1734.74, 11491.99, 28674.56, 7644.03, 20823.06, 79149.16, 43454.74, 18216.89, 0.00, 0.00, 0.00
219, 1801.42, 11559.09, 28611.24, 7673.69, 20849.48, 78549.64, 43028.74, 18184.46, 0.00, 0.00, 0.00
220, 1912.17, 11662.74, 28673.51, 7767.34, 20950.54, 76405.62, 42798.80, 18269.15, 0.00, 0.00, 0.00
221, 1867.13, 11617.36, 28745.33, 7753.80, 20941.30, 76771.00, 43159.96, 18305.47, 0.00, 0.00, 0.00
222, 1758.72, 11518.39, 28706.21, 7659.50, 20837.70, 78889.01, 43464.04, 18236.81, 0.00, 0.00, 0.00
223, 1781.34, 11545.26, 28607.35, 7641.52, 20817.14, 78896.05, 43112.82, 18164.01, 0.00, 0.00, 0.00
224, 1910.60, 11669.24, 28647.98, 7749.44, 20928.54, 76652.47, 42776.92, 18247.36, 0.00, 0.00, 0.00
225, 1893.42, 11654.51, 28729.01, 7757.46, 20942.71, 76511.02, 43083.39, 18303.48, 0.00, 0.00, 0.00
226, 1767.89, 11525.70, 28702.19, 7656.95, 20848.21, 78568.75, 43448.28, 18247.49, 0.02, 0.97, 0.12
227, 1764.80, 11520.71, 28615.78, 7624.20, 20817.59, 79180.07, 43220.96, 18178.88, 0.00, 0.00, 0.00
228, 1886.58, 11637.90, 28629.23, 7720.90, 20926.53, 77000.28, 42793.29, 18227.15, 0.00, 0.00, 0.00
229, 1891.38, 11645.04, 28724.47, 7753.08, 20953.51, 76335.18, 43011.33, 18292.76, 0.00, 0.00, 0.00
230, 1779.33, 11540.90, 28736.50, 7667.79, 20864.66, 78203.56, 43416.79, 18252.12, 0.00, 0.00, 0.00
231, 1736.98, 11499.66, 28638.78, 7612.47, 20823.31, 79354.84, 43314.30, 18170.02, 0.00, 0.00, 0.00
232, 1854.68, 11607.35, 28621.77, 7690.92, 20902.88, 77404.06, 42823.50, 18195.32, 0.00, 0.00, 0.00
233, 1897.06, 11651.81, 28734.53, 7741.88, 20941.75, 76221.59, 42933.43, 18275.48, 0.00, 0.00, 0.00
234, 1794.73, 11557.91, 28764.95, 7665.37, 20868.10, 77792.67, 43354.80, 18247.85, 0.00, 0.00, 0.00
235, 1734.58, 11495.43, 28674.13, 7586.34, 20799.08, 79383.98, 43374.43, 18159.76, 0.00, 0.00, 0.00
236, 1835.68, 11593.56, 28637.12, 7650.67, 20863.07, 77828.97, 42878.27, 18163.99, 0.02, 0.99, 0.11
237, 1897.80, 11660.59, 28717.54, 7724.05, 20940.70, 76216.59, 42874.73, 18265.29, 0.00, 0.00, 0.00
238, 1811.27, 11587.23, 28752.05, 7665.49, 20891.26, 77407.71, 43287.41, 18258.51, 0.00, 0.00, 0.00
239, 1719.21, 11485.58, 28669.22, 7576.88, 20794.07, 79328.13, 43414.75, 18170.02, 0.00, 0.00, 0.00
240, 1810.16, 11567.50, 28602.99, 7634.08, 20841.28, 78286.94, 42938.06, 18152.34, 0.00, 0.00, 0.00
241, 1906.83, 11668.04, 28679.16, 7732.16, 20940.77, 76327.92, 42816.17, 18248.39, 0.00, 0.00, 0.00
242, 1839.55, 11604.73, 28734.84, 7696.51, 20903.22, 77068.84, 43203.35, 18259.23, 0.00, 0.00, 0.00
243, 1737.65, 11501.40, 28687.32, 7609.11, 20811.22, 79139.68, 43443.56, 18189.02, 0.00, 0.00, 0.00
244, 1795.22, 11553.26, 28621.25, 7627.11, 20835.29, 78682.83, 43043.73, 18149.01, 0.00, 0.00, 0.00
245, 1900.93, 11659.85, 28678.31, 7715.73, 20943.72, 76511.67, 42796.39, 18224.52, 0.00, 0.00, 0.00
246, 1859.40, 11625.97, 28760.08, 7699.59, 20929.26, 76757.61, 43138.75, 18255.94, 0.02, 1.00, 0.11
247, 1748.13, 11509.87, 28735.83, 7595.86, 20824.36, 78861.27, 43457.02, 18189.49, 0.00, 0.00, 0.00
248, 1775.38, 11532.07, 28659.14, 7576.59, 20813.25, 79029.84, 43149.95, 18125.32, 0.00, 0.00, 0.00
249, 1897.77, 11642.42, 28698.43, 7665.66, 20919.64, 76795.14, 42785.57, 18190.07, 0.00, 0.00, 0.00
250, 1881.01, 11625.21, 28764.97, 7657.24, 20926.44, 76516.70, 43059.11, 18231.33, 0.00, 0.00, 0.00
251, 1773.12, 11521.50, 28776.19, 7563.74, 20846.29, 78522.59, 43442.85, 18187.81, 0.00, 0.00, 0.00
252, 1775.26, 11511.46, 28704.60, 7532.72, 20824.22, 79267.91, 43256.01, 18125.79, 0.00, 0.00, 0.00
253, 1901.42, 11629.95, 28699.59, 7624.45, 20914.15, 77146.84, 42811.01, 18162.60, 0.00, 0.00, 0.00
254, 1919.05, 11639.40, 28794.28, 7649.44, 20958.36, 76345.76, 42999.64, 18236.65, 0.00, 0.00, 0.00
255, 1810.74, 11533.03, 28842.73, 7554.53, 20881.51, 78106.42, 43393.88, 18186.16, 0.00, 0.00, 0.00
0, 1779.42, 11499.68, 28797.63, 7497.67, 20826.37, 79381.63, 43330.26, 18120.74, 0.02, 0.98, 0.11
1, 1902.02, 11610.64, 28771.48, 7576.35, 20906.23, 77592.63, 42852.38, 18146.17, 0.00, 0.00, 0.00
2, 1939.82, 11648.46, 28830.22, 7627.15, 20963.83, 76286.79, 42905.76, 18217.12, 0.00, 0.00, 0.00
3, 1851.15, 11565.28, 28874.27, 7569.66, 20894.83, 77553.71, 43271.41, 18191.01, 0.00, 0.00, 0.00
4, 1789.48, 11506.68, 28854.29, 7505.78, 20823.18, 78972.96, 43305.88, 18123.42, 0.00, 0.00, 0.00
5, 1868.81, 11575.59, 28809.01, 7556.77, 20879.19, 77836.84, 42926.97, 18133.63, 0.00, 0.00, 0.00
6, 1930.43, 11637.21, 28844.17, 7621.34, 20952.26, 76477.88, 42908.46, 18202.32, 0.00, 0.00, 0.00
7, 1880.83, 11595.03, 28882.63, 7599.17, 20928.83, 77389.13, 43247.67, 18208.27, 0.00, 0.00, 0.00
8, 1808.28, 11521.97, 28799.73, 7531.11, 20853.66, 78929.70, 43360.26, 18139.92, 0.00, 0.00, 0.00
9, 1886.40, 11597.56, 28697.94, 7571.27, 20877.27, 78172.05, 43016.47, 18127.58, 0.00, 0.00, 0.00
10, 1964.27, 11655.36, 28705.25, 7644.36, 20952.61, 76581.84, 42901.80, 18202.70, 0.02, 0.98, 0.12
11, 1910.25, 11601.16, 28722.68, 7617.63, 20926.93, 77099.39, 43191.59, 18210.95, 0.00, 0.00, 0.00
12, 1826.03, 11523.55, 28668.44, 7544.00, 20845.13, 78754.02, 43377.05, 18148.52, 0.00, 0.00, 0.00
13, 1871.78, 11570.80, 28589.29, 7566.69, 20859.45, 78478.23, 43083.95, 18123.96, 0.00, 0.00, 0.00
14, 1967.27, 11665.58, 28611.97, 7645.91, 20952.44, 76757.59, 42879.77, 18188.91, 0.00, 0.00, 0.00
15, 1945.97, 11644.57, 28645.55, 7647.78, 20960.57, 76854.70, 43130.68, 18214.57, 0.00, 0.00, 0.00
16, 1852.87, 11546.60, 28574.40, 7581.13, 20876.71, 78516.22, 43381.72, 18166.22, 0.00, 0.00, 0.00
17, 1879.76, 11554.35, 28490.34, 7586.25, 20866.54, 78695.88, 43171.39, 18129.37, 0.00, 0.00, 0.00
18, 1958.33, 11630.06, 28488.21, 7649.06, 20945.10, 76947.46, 42877.04, 18159.81, 0.00, 0.00, 0.00
19, 1945.97, 11621.14, 28541.68, 7657.44, 20973.11, 76665.90, 43080.89, 18199.86, 0.00, 0.00, 0.00
20, 1840.62, 11526.75, 28518.01, 7584.55, 20878.47, 78226.38, 43355.32, 18157.69, 0.02, 0.99, 0.12
21, 1847.48, 11533.75, 28430.37, 7583.39, 20853.53, 78846.60, 43226.15, 18119.49, 0.00, 0.00, 0.00
22, 1956.65, 11640.72, 28424.62, 7670.16, 20918.15, 77232.90, 42904.04, 18154.85, 0.00, 0.00, 0.00
23, 1977.64, 11670.09, 28488.71, 7707.98, 20961.06, 76556.13, 43044.16, 18213.68, 0.00, 0.00, 0.00
24, 1863.22, 11549.33, 28476.03, 7617.18, 20880.89, 77921.11, 43327.02, 18155.96, 0.00, 0.00, 0.00
25, 1829.80, 11509.99, 28374.33, 7579.27, 20845.39, 78910.02, 43275.48, 18093.51, 0.00, 0.00, 0.00
26, 1926.52, 11600.06, 28309.53, 7652.41, 20918.35, 77530.87, 42931.73, 18122.30, 0.00, 0.00, 0.00
27, 1974.06, 11653.62, 28353.92, 7709.30, 20962.34, 76486.39, 42982.78, 18191.82, 0.00, 0.00, 0.00
28, 1894.56, 11585.00, 28363.67, 7655.34, 20913.99, 77595.28, 43285.40, 18164.93, 0.00, 0.00, 0.00
29, 1844.78, 11529.28, 28285.42, 7600.71, 20856.50, 78884.16, 43328.48, 18101.94, 0.02, 0.98, 0.12
30, 1916.46, 11595.12, 28214.83, 7643.13, 20901.03, 77845.73, 42971.36, 18091.68, 0.00, 0.00, 0.00
31, 1985.13, 11658.87, 28282.82, 7715.87, 20979.19, 76509.21, 42926.66, 18159.76, 0.00, 0.00, 0.00
32, 1922.32, 11599.75, 28330.23, 7685.62, 20945.39, 77297.91, 43235.22, 18178.27, 0.00, 0.00, 0.00
33, 1851.24, 11538.51, 28294.25, 7623.71, 20861.75, 78787.02, 43370.96, 18124.56, 0.00, 0.00, 0.00
34, 1902.16, 11583.52, 28223.77, 7641.03, 20878.52, 78153.52, 43022.46, 18093.11, 0.00, 0.00, 0.00
35, 1979.90, 11654.07, 28247.33, 7713.99, 20956.10, 76605.23, 42883.07, 18162.20, 0.00, 0.00, 0.00
36, 1931.84, 11611.08, 28267.98, 7685.04, 20937.06, 77032.20, 43164.35, 18157.73, 0.00, 0.00, 0.00
37, 1849.49, 11540.99, 28206.18, 7607.06, 20874.25, 78595.80, 43359.90, 18103.08, 0.00, 0.00, 0.00
38, 1879.69, 11562.47, 28127.81, 7610.93, 20881.18, 78409.00, 43120.09, 18085.96, 0.00, 0.00, 0.00
39, 1981.24, 11656.23, 28154.95, 7692.78, 20961.89, 76759.04, 42918.01, 18170.72, 0.02, 0.97, 0.11
40, 1959.60, 11640.99, 28191.72, 7689.80, 20964.24, 76796.79, 43162.67, 18193.31, 0.00, 0.00, 0.00
41, 1877.95, 11560.08, 28159.51, 7619.69, 20899.30, 78353.05, 43436.46, 18144.01, 0.00, 0.00, 0.00
42, 1896.32, 11578.07, 28092.74, 7608.06, 20900.69, 78604.91, 43255.74, 18114.93, 0.00, 0.00, 0.00
43, 1986.02, 11662.54, 28110.87, 7677.87, 20984.55, 76960.92, 42942.80, 18162.87, 0.00, 0.00, 0.00
44, 1975.65, 11653.66, 28212.01, 7681.62, 20984.22, 76602.53, 43103.30, 18193.67, 0.00, 0.00, 0.00
45, 1883.34, 11570.89, 28263.51, 7602.41, 20910.53, 78062.37, 43363.37, 18146.02, 0.00, 0.00, 0.00
46, 1869.01, 11554.40, 28232.69, 7572.39, 20869.40, 78724.72, 43230.44, 18089.76, 0.00, 0.00, 0.00
47, 1965.30, 11648.39, 28247.20, 7644.48, 20939.07, 77199.41, 42904.42, 18126.62, 0.00, 0.00, 0.00
48, 1986.49, 11674.74, 28322.88, 7674.76, 20983.53, 76465.13, 43013.27, 18182.18, 0.00, 0.00, 0.00
49, 1905.29, 11594.03, 28352.83, 7615.71, 20928.45, 77748.33, 43307.44, 18155.23, 0.02, 0.98, 0.12
50, 1857.77, 11543.54, 28282.00, 7558.71, 20864.19, 78765.73, 43265.98, 18082.94, 0.00, 0.00, 0.00
51, 1929.25, 11616.27, 28249.56, 7621.23, 20921.90, 77507.94, 42922.93, 18093.63, 0.00, 0.00, 0.00
52, 1972.90, 11662.89, 28327.35, 7686.79, 20974.18, 76442.38, 42952.30, 18160.54, 0.00, 0.00, 0.00
53, 1893.55, 11601.85, 28362.13, 7632.63, 20917.34, 77460.82, 43248.30, 18133.48, 0.00, 0.00, 0.00
54, 1827.79, 11539.07, 28289.55, 7560.21, 20848.41, 78748.14, 43301.74, 18058.00, 0.00, 0.00, 0.00
55, 1910.74, 11596.40, 28237.31, 7612.62, 20901.79, 77802.30, 42980.08, 18067.54, 0.00, 0.00, 0.00
56, 1976.99, 11656.21, 28299.52, 7683.43, 20971.79, 76461.54, 42936.11, 18140.47, 0.00, 0.00, 0.00
57, 1917.15, 11612.63, 28348.92, 7646.40, 20939.25, 77182.52, 43231.09, 18146.29, 0.00, 0.00, 0.00
58, 1835.59, 11549.21, 28294.65, 7568.88, 20865.44, 78672.02, 43357.42, 18076.99, 0.00, 0.00, 0.00
59, 1878.75, 11585.31, 28220.24, 7590.79, 20883.10, 78132.89, 43052.43, 18049.57, 0.03, 1.00, 0.13
60, 1962.04, 11655.81, 28268.54, 7673.02, 20955.07, 76583.47, 42901.40, 18106.01, 0.00, 0.00, 0.00
61, 1916.93, 11615.62, 28326.68, 7654.15, 20936.90, 76925.05, 43174.61, 18123.60, 0.00, 0.00, 0.00
62, 1826.96, 11539.00, 28302.47, 7574.65, 20862.22, 78492.53, 43382.97, 18074.04, 0.00, 0.00, 0.00
63, 1851.46, 11568.55, 28232.73, 7574.83, 20859.72, 78395.19, 43123.06, 18025.41, 0.00, 0.00, 0.00
64, 1940.89, 11654.07, 28262.77, 7659.90, 20943.67, 76760.94, 42895.84, 18084.28, 0.00, 0.00, 0.00
65, 1919.48, 11635.78, 28338.97, 7665.08, 20958.65, 76726.23, 43123.06, 18123.38, 0.00, 0.00, 0.00
66, 1831.55, 11548.68, 28326.34, 7588.39, 20884.04, 78254.55, 43361.55, 18066.94, 0.00, 0.00, 0.00
67, 1836.82, 11552.57, 28243.24, 7572.86, 20845.93, 78586.79, 43174.05, 18020.06, 0.00, 0.00, 0.00
68, 1925.16, 11638.51, 28244.09, 7651.36, 20913.81, 77009.89, 42889.33, 18062.36, 0.00, 0.00, 0.00
69, 1922.18, 11635.76, 28315.21, 7670.96, 20935.31, 76593.01, 43045.23, 18102.43, 0.02, 0.99, 0.12
70, 1834.01, 11556.28, 28327.77, 7607.28, 20869.44, 78015.77, 43312.63, 18059.34, 0.00, 0.00, 0.00
71, 1807.16, 11529.83, 28260.27, 7569.62, 20830.55, 78751.98, 43214.75, 18003.95, 0.00, 0.00, 0.00
72, 1900.97, 11614.70, 28249.90, 7637.57, 20905.50, 77296.55, 42896.64, 18049.03, 0.00, 0.00, 0.00
73, 1940.40, 11651.81, 28329.92, 7681.65, 20955.50, 76497.75, 42989.60, 18109.74, 0.00, 0.00, 0.00
74, 1862.30, 11576.59, 28359.02, 7620.89, 20897.99, 77724.48, 43278.03, 18066.71, 0.00, 0.00, 0.00
75, 1826.50, 11541.46, 28327.13, 7580.21, 20851.88, 78808.56, 43270.14, 18010.50, 0.00, 0.00, 0.00
76, 1913.71, 11623.53, 28323.66, 7644.92, 20901.85, 77595.55, 42934.88, 18042.91, 0.00, 0.00, 0.00
77, 1964.18, 11668.06, 28410.14, 7730.37, 20964.01, 76475.59, 42962.89, 18109.56, 0.00, 0.00, 0.00
78, 1897.44, 11613.09, 28464.97, 7706.30, 20918.01, 77449.77, 43266.02, 18096.89, 0.00, 0.00, 0.00
79, 1821.20, 11537.25, 28416.44, 7621.25, 20837.28, 78818.13, 43335.96, 18018.12, 0.02, 0.99, 0.11
80, 1883.85, 11585.74, 28370.29, 7650.02, 20873.91, 77946.92, 42998.30, 18014.97, 0.00, 0.00, 0.00
81, 1946.86, 11648.90, 28432.83, 7710.19, 20948.95, 76565.90, 42936.07, 18085.89, 0.00, 0.00, 0.00
82, 1883.07, 11595.19, 28478.16, 7671.63, 20919.13, 77218.79, 43220.70, 18079.90, 0.00, 0.00, 0.00
83, 1812.17, 11537.68, 28441.65, 7611.44, 20854.94, 78742.53, 43375.44, 18030.06, 0.00, 0.00, 0.00
84, 1856.20, 11586.50, 28365.46, 7633.19, 20871.01, 78298.59, 43079.39, 18017.18, 0.00, 0.00, 0.00
85, 1931.32, 11661.31, 28390.71, 7699.71, 20938.29, 76712.21, 42912.87, 18077.49, 0.00, 0.00, 0.00
86, 1899.07, 11636.76, 28447.20, 7690.43, 20929.53, 76989.42, 43166.87, 18099.08, 0.00, 0.00, 0.00
87, 1806.76, 11539.29, 28406.81, 7614.75, 20850.09, 78598.43, 43370.05, 18036.61, 0.00, 0.00, 0.00
88, 1828.17, 11553.62, 28318.38, 7616.47, 20847.14, 78589.20, 43122.06, 17998.83, 0.00, 0.00, 0.00
89, 1906.76, 11628.70, 28318.41, 7690.41, 20912.18, 76911.59, 42871.88, 18046.22, 0.02, 0.99, 0.11
90, 1900.32, 11626.97, 28389.53, 7706.61, 20928.85, 76808.26, 43088.55, 18086.74, 0.00, 0.00, 0.00
91, 1809.55, 11547.09, 28381.89, 7637.95, 20858.45, 78396.70, 43352.01, 18044.25, 0.00, 0.00, 0.00
92, 1798.18, 11549.59, 28295.92, 7611.60, 20833.48, 78859.88, 43191.14, 17991.30, 0.00, 0.00, 0.00
93, 1897.53, 11640.97, 28290.85, 7688.69, 20914.06, 77211.44, 42889.38, 18033.12, 0.00, 0.00, 0.00
94, 1912.04, 11644.21, 28365.44, 7719.15, 20948.97, 76687.36, 43057.77, 18093.92, 0.00, 0.00, 0.00
95, 1811.81, 11552.95, 28355.67, 7635.71, 20864.86, 78159.04, 43351.05, 18043.62, 0.00, 0.00, 0.00
96, 1787.38, 11525.32, 28269.19, 7596.62, 20829.46, 79031.92, 43270.05, 17977.75, 0.00, 0.00, 0.00
97, 1885.57, 11615.93, 28243.91, 7671.97, 20903.87, 77524.74, 42925.59, 18013.14, 0.00, 0.00, 0.00
98, 1918.18, 11652.54, 28304.04, 7715.17, 20945.44, 76596.70, 43001.43, 18083.23, 0.00, 0.00, 0.00
99, 1832.13, 11579.05, 28316.82, 7657.75, 20886.56, 77847.79, 43316.96, 18046.78, 0.02, 0.98, 0.11
100, 1777.43, 11527.71, 28242.41, 7616.78, 20820.43, 79073.61, 43316.20, 17968.57, 0.00, 0.00, 0.00
101, 1871.33, 11619.53, 28223.79, 7687.08, 20876.95, 77829.53, 42950.13, 17988.97, 0.00, 0.00, 0.00
102, 1928.46, 11670.72, 28295.99, 7749.35, 20946.85, 76533.45, 42951.58, 18067.52, 0.00, 0.00, 0.00
103, 1857.79, 11607.22, 28346.46, 7701.02, 20907.57, 77506.88, 43275.97, 18061.01, 0.00, 0.00, 0.00
104, 1780.74, 11529.57, 28282.15, 7627.33, 20824.54, 79072.20, 43377.61, 17994.05, 0.00, 0.00, 0.00
105, 1847.71, 11592.64, 28205.91, 7665.82, 20861.22, 78211.66, 42997.36, 17983.90, 0.00, 0.00, 0.00
106, 1927.35, 11679.32, 28252.60, 7739.22, 20943.49, 76584.14, 42886.16, 18057.91, 0.00, 0.00, 0.00
107, 1862.19, 11619.17, 28290.27, 7692.24, 20909.56, 77213.95, 43191.08, 18057.62, 0.00, 0.00, 0.00
108, 1767.22, 11524.69, 28243.17, 7607.66, 20839.00, 78938.40, 43378.01, 17993.22, 0.00, 0.00, 0.00
109, 1811.56, 11564.48, 28162.97, 7618.90, 20861.91, 78547.70, 43056.68, 17964.23, 0.02, 0.98, 0.11
110, 1905.11, 11645.10, 28188.68, 7699.37, 20935.31, 76728.55, 42849.05, 18029.25, 0.00, 0.00, 0.00
111, 1869.30, 11622.86, 28254.12, 7688.93, 20919.31, 76928.98, 43127.20, 18054.76, 0.00, 0.00, 0.00
112, 1773.05, 11542.49, 28223.70, 7610.50, 20836.32, 78689.16, 43388.27, 18000.91, 0.00, 0.00, 0.00
113, 1792.48, 11547.69, 28140.24, 7604.06, 20823.51, 78799.40, 43139.56, 17951.18, 0.00, 0.00, 0.00
114, 1894.00, 11638.24, 28149.36, 7685.13, 20909.12, 76957.61, 42852.79, 18004.80, 0.00, 0.00, 0.00
115, 1884.01, 11642.04, 28217.71, 7705.90, 20933.59, 76739.88, 43079.66, 18050.58, 0.00, 0.00, 0.00
116, 1778.26, 11557.55, 28206.52, 7623.78, 20856.99, 78408.28, 43375.53, 17997.11, 0.00, 0.00, 0.00
117, 1771.78, 11547.74, 28119.52, 7597.09, 20821.28, 79000.34, 43218.35, 17944.96, 0.00, 0.00, 0.00
118, 1878.08, 11630.73, 28119.14, 7680.84, 20905.16, 77248.09, 42867.47, 17987.70, 0.02, 0.99, 0.10
119, 1885.12, 11634.91, 28192.90, 7705.25, 20936.39, 76603.63, 43019.60, 18041.25, 0.00, 0.00, 0.00
120, 1791.00, 11550.44, 28221.15, 7630.80, 20868.10, 78111.16, 43341.75, 18000.11, 0.00, 0.00, 0.00
121, 1758.55, 11522.86, 28154.95, 7579.50, 20825.37, 79119.09, 43275.08, 17935.58, 0.00, 0.00, 0.00
122, 1854.32, 11616.76, 28131.23, 7648.32, 20894.88, 77593.52, 42902.00, 17973.95, 0.00, 0.00, 0.00
123, 1885.44, 11647.43, 28196.93, 7689.96, 20939.02, 76547.10, 42960.57, 18031.67, 0.00, 0.00, 0.00
124, 1809.84, 11584.57, 28229.00, 7639.47, 20889.11, 77787.42, 43294.50, 18008.17, 0.00, 0.00, 0.00
125, 1745.87, 11531.58, 28160.31, 7577.08, 20808.33, 79168.98, 43328.65, 17937.45, 0.00, 0.00, 0.00
126, 1837.13, 11610.30, 28113.64, 7638.22, 20866.34, 77990.77, 42936.56, 17943.11, 0.00, 0.00, 0.00
127, 1894.62, 11665.00, 28174.84, 7700.13, 20925.23, 76604.99, 42904.93, 18006.05, 0.00, 0.00, 0.00
128, 1833.69, 11611.19, 28226.41, 7653.33, 20877.33, 77524.63, 43238.29, 17997.58, 0.02, 0.99, 0.10
129, 1757.36, 11537.52, 28153.50, 7573.98, 20795.86, 79118.78, 43354.52, 17919.08, 0.00, 0.00, 0.00
130, 1823.97, 11610.39, 28085.88, 7621.79, 20843.83, 78341.32, 43000.39, 17925.34, 0.00, 0.00, 0.00
131, 1899.36, 11678.14, 28134.99, 7709.88, 20945.06, 76689.68, 42898.88, 18021.45, 0.00, 0.00, 0.00
132, 1831.21, 11620.27, 28155.69, 7673.44, 20914.06, 77236.52, 43199.28, 18018.37, 0.00, 0.00, 0.00
133, 1749.00, 11563.03, 28100.70, 7600.78, 20836.14, 78972.91, 43401.07, 17953.39, 0.00, 0.00, 0.00
134, 1792.90, 11585.67, 28009.28, 7612.74, 20840.07, 78703.84, 43084.73, 17925.43, 0.00, 0.00, 0.00
135, 1885.88, 11662.56, 28019.99, 7689.40, 20916.11, 76869.91, 42850.39, 17988.86, 0.00, 0.00, 0.00
136, 1864.76, 11650.98, 28071.73, 7687.66, 20928.03, 76988.88, 43120.00, 18028.60, 0.00, 0.00, 0.00
137, 1747.71, 11545.64, 28006.13, 7580.64, 20808.56, 78752.48, 43383.68, 17936.78, 0.00, 0.00, 0.00
138, 1788.90, 11584.57, 27937.87, 7604.76, 20824.09, 78983.59, 43183.25, 17923.28, 0.00, 0.98, 0.10
139, 1888.45, 11678.85, 27923.54, 7682.72, 20928.68, 77126.30, 42876.93, 17974.13, 0.00, 0.00, 0.00
140, 1873.55, 11669.47, 27978.48, 7689.76, 20921.03, 76803.01, 43072.05, 18008.80, 0.00, 0.00, 0.00
141, 1791.78, 11596.44, 27998.00, 7636.32, 20867.65, 78492.57, 43398.01, 17983.19, 0.00, 0.00, 0.00
142, 1763.15, 11568.68, 27891.09, 7585.02, 20822.79, 79190.80, 43231.04, 17892.41, 0.00, 0.00, 0.00
143, 1865.45, 11662.78, 27883.46, 7671.70, 20869.35, 77452.28, 42869.53, 17938.24, 0.00, 0.00, 0.00
144, 1859.24, 11653.33, 27925.55, 7663.79, 20871.81, 76681.63, 42981.04, 17972.84, 0.00, 0.00, 0.00
145, 1802.89, 11612.38, 27969.05, 7620.51, 20858.29, 78174.40, 43357.73, 17967.61, 0.00, 0.00, 0.00
146, 1735.70, 11556.03, 27877.38, 7551.45, 20782.94, 79278.15, 43300.67, 17894.52, 0.00, 0.00, 0.00
147, 1836.87, 11626.50, 27838.87, 7608.42, 20856.28, 77748.93, 42901.60, 17920.76, 0.00, 0.00, 0.00
148, 1891.09, 11672.44, 27918.91, 7681.82, 20932.95, 76591.73, 42975.00, 17992.51, 0.01, 0.98, 0.10
149, 1819.72, 11626.33, 27954.03, 7628.38, 20877.56, 77792.02, 43327.09, 17988.71, 0.00, 0.00, 0.00
150, 1773.01, 11586.07, 27912.77, 7579.45, 20848.23, 79286.69, 43415.54, 17944.74, 0.00, 0.00, 0.00
151, 1843.37, 11630.60, 27835.34, 7614.30, 20868.73, 78135.84, 42986.85, 17902.58, 0.00, 0.00, 0.00
152, 1885.75, 11668.44, 27876.78, 7651.63, 20910.17, 76629.78, 42912.20, 17968.75, 0.00, 0.00, 0.00
153, 1826.07, 11620.31, 27963.44, 7625.95, 20890.86, 77485.18, 43261.04, 17986.76, 0.00, 0.00, 0.00
154, 1769.61, 11572.10, 27982.17, 7579.21, 20854.91, 79201.15, 43442.09, 17957.75, 0.00, 0.00, 0.00
155, 1818.00, 11616.96, 27918.18, 7595.66, 20872.26, 78515.35, 43059.88, 17921.65, 0.00, 0.00, 0.00
156, 1898.13, 11699.33, 27971.69, 7678.70, 20940.34, 76752.00, 42886.60, 17986.20, 0.00, 0.00, 0.00
157, 1847.66, 11660.79, 28034.76, 7650.62, 20924.54, 77204.95, 43197.88, 17996.30, 0.00, 0.00, 0.00
158, 1744.35, 11549.01, 27991.27, 7557.59, 20827.98, 78973.36, 43401.90, 17918.57, 0.02, 0.99, 0.10
159, 1772.96, 11568.37, 27911.16, 7557.19, 20826.53, 78789.85, 43097.20, 17875.56, 0.00, 0.00, 0.00
160, 1867.06, 11667.07, 27937.65, 7640.45, 20914.88, 76918.67, 42871.85, 17944.29, 0.00, 0.00, 0.00
161, 1843.80, 11650.89, 28000.90, 7640.81, 20904.85, 76928.91, 43136.32, 17976.23, 0.00, 0.00, 0.00
162, 1748.55, 11560.19, 27986.82, 7560.14, 20828.67, 78678.95, 43426.51, 17936.13, 0.00, 0.00, 0.00
163, 1748.31, 11563.65, 27906.42, 7537.97, 20810.08, 79007.24, 43206.21, 17875.11, 0.00, 0.00, 0.00
164, 1852.31, 11661.22, 27917.91, 7627.29, 20894.03, 77147.09, 42883.23, 17924.09, 0.00, 0.00, 0.00
165, 1852.69, 11681.60, 27995.02, 7651.58, 20921.97, 76749.70, 43097.25, 17992.55, 0.00, 0.00, 0.00
166, 1749.94, 11567.99, 28003.07, 7575.63, 20844.57, 78383.61, 43409.25, 17946.26, 0.00, 0.00, 0.00
167, 1727.03, 11528.34, 27920.88, 7536.54, 20808.67, 79178.44, 43282.36, 17878.87, 0.00, 0.00, 0.00
168, 1834.21, 11638.69, 27913.88, 7610.95, 20903.82, 77468.30, 42908.71, 17927.82, 0.02, 0.97, 0.10
169, 1853.50, 11667.14, 27974.95, 7639.29, 20931.80, 76621.98, 43013.34, 17982.74, 0.00, 0.00, 0.00
170, 1757.88, 11593.92, 27960.49, 7562.62, 20854.69, 78057.67, 43350.60, 17951.85, 0.00, 0.00, 0.00
171, 1711.72, 11553.08, 27859.73, 7493.40, 20801.05, 79258.79, 43329.32, 17883.85, 0.00, 0.00, 0.00
172, 1811.41, 11621.21, 27831.97, 7556.21, 20873.67, 77811.52, 42920.38, 17899.97, 0.00, 0.00, 0.00
173, 1863.98, 11661.71, 27899.78, 7611.17, 20931.74, 76576.27, 42954.66, 17971.12, 0.00, 0.00, 0.00
174, 1777.81, 11578.72, 27913.80, 7546.35, 20869.06, 77712.48, 43296.29, 17954.06, 0.00, 0.00, 0.00
175, 1712.03, 11525.81, 27820.61, 7470.60, 20796.46, 79228.55, 43369.38, 17882.63, 0.00, 0.00, 0.00
176, 1803.70, 11625.50, 27755.28, 7529.12, 20850.49, 78189.84, 42983.92, 17886.51, 0.00, 0.00, 0.00
177, 1877.37, 11690.34, 27810.98, 7613.29, 20937.59, 76617.35, 42924.71, 17972.66, 0.00, 0.00, 0.00
178, 1802.42, 11608.29, 27851.81, 7571.90, 20904.04, 77389.11, 43263.83, 17977.51, 0.01, 0.98, 0.10
179, 1700.95, 11517.92, 27788.56, 7480.77, 20803.73, 79113.91, 43415.69, 17894.00, 0.00, 0.00, 0.00
180, 1775.26, 11593.04, 27730.54, 7530.10, 20843.27, 78534.28, 43069.08, 17887.99, 0.00, 0.00, 0.00
181, 1865.28, 11680.33, 27781.92, 7622.88, 20933.26, 76753.81, 42901.91, 17965.97, 0.00, 0.00, 0.00
182, 1813.71, 11633.95, 27850.34, 7603.75, 20911.82, 77123.87, 43199.98, 17978.24, 0.00, 0.00, 0.00
183, 1720.99, 11548.83, 27824.21, 7529.32, 20834.40, 78914.15, 43435.81, 17918.14, 0.00, 0.00, 0.00
184, 1754.39, 11598.12, 27760.87, 7537.90, 20841.73, 78850.60, 43153.13, 17882.36, 0.00, 0.00, 0.00
185, 1871.53, 11692.60, 27803.65, 7631.65, 20935.54, 76969.70, 42890.02, 17944.40, 0.00, 0.00, 0.00
186, 1844.80, 11658.36, 27901.70, 7645.17, 20944.61, 76887.25, 43146.73, 17982.60, 0.00, 0.00, 0.00
187, 1737.31, 11558.78, 27900.52, 7562.33, 20856.50, 78649.28, 43435.43, 17918.92, 0.00, 0.00, 0.00
188, 1741.38, 11566.78, 27812.59, 7537.86, 20830.93, 79097.91, 43232.43, 17853.97, 0.01, 1.00, 0.10
189, 1851.31, 11662.89, 27800.83, 7617.85, 20917.05, 77240.18, 42887.63, 17894.61, 0.00, 0.00, 0.00
190, 1865.32, 11673.38, 27871.55, 7638.08, 20949.24, 76701.48, 43075.34, 17948.58, 0.00, 0.00, 0.00
191, 1766.97, 11600.62, 27880.98, 7552.12, 20867.05, 78333.20, 43406.75, 17903.12, 0.00, 0.00, 0.00
192, 1746.39, 11563.67, 27807.22, 7505.36, 20828.81, 79239.37, 43307.71, 17835.37, 0.00, 0.00, 0.00
193, 1848.67, 11631.80, 27784.63, 7554.24, 20912.22, 77550.20, 42922.70, 17869.68, 0.00, 0.00, 0.00
194, 1886.33, 11669.93, 27862.63, 7576.66, 20948.37, 76601.46, 43029.32, 17943.02, 0.00, 0.00, 0.00
195, 1803.29, 11588.33, 27892.94, 7510.16, 20880.08, 77979.69, 43376.02, 17918.63, 0.00, 0.00, 0.00
196, 1758.59, 11545.14, 27810.67, 7459.25, 20820.04, 79271.38, 43377.65, 17847.78, 0.00, 0.00, 0.00
197, 1860.74, 11642.64, 27767.41, 7509.02, 20882.41, 77878.08, 42960.57, 17857.37, 0.00, 0.00, 0.00
198, 1911.50, 11689.16, 27818.94, 7556.32, 20940.59, 76546.97, 42965.10, 17924.62, 0.01, 0.99, 0.09
199, 1839.17, 11620.98, 27834.16, 7508.98, 20891.79, 77602.57, 43306.53, 17915.15, 0.00, 0.00, 0.00
200, 1765.97, 11552.83, 27753.09, 7442.66, 20814.12, 79179.78, 43398.84, 17846.64, 0.00, 0.00, 0.00
201, 1841.20, 11626.17, 27699.58, 7490.14, 20857.60, 78214.43, 42999.46, 17837.90, 0.00, 0.00, 0.00
202, 1928.22, 11708.78, 27751.72, 7571.61, 20943.67, 76568.40, 42900.35, 17923.55, 0.00, 0.00, 0.00
203, 1871.35, 11663.01, 27786.79, 7542.28, 20912.45, 77260.95, 43228.83, 17933.45, 0.00, 0.00, 0.00
204, 1774.59, 11556.43, 27708.18, 7453.77, 20817.47, 79033.89, 43404.36, 17855.04, 0.00, 0.00, 0.00
205, 1823.77, 11596.89, 27599.17, 7469.86, 20829.57, 78555.96, 43038.64, 17810.79, 0.00, 0.00, 0.00
206, 1918.52, 11678.36, 27619.89, 7566.15, 20917.21, 76712.86, 42842.95, 17889.71, 0.00, 0.00, 0.00
207, 1884.12, 11644.70, 27689.29, 7566.49, 20911.89, 77007.68, 43146.82, 17925.90, 0.01, 0.99, 0.09
208, 1800.50, 11567.27, 27669.04, 7492.21, 20833.17, 78830.73, 43404.63, 17869.30, 0.00, 0.00, 0.00
209, 1830.81, 11592.55, 27589.85, 7490.94, 20825.68, 78862.92, 43128.85, 17818.90, 0.00, 0.00, 0.00
210, 1935.91, 11695.42, 27618.62, 7579.83, 20908.49, 76934.95, 42842.84, 17871.54, 0.00, 0.00, 0.00
211, 1925.67, 11678.92, 27696.31, 7588.31, 20912.69, 76768.02, 43086.92, 17909.98, 0.00, 0.00, 0.00
212, 1829.80, 11584.26, 27676.82, 7506.25, 20838.02, 78527.66, 43405.54, 17864.01, 0.00, 0.00, 0.00
213, 1827.32, 11584.48, 27632.75, 7484.26, 20815.75, 79072.47, 43229.68, 17806.20, 0.00, 0.00, 0.00
214, 1944.89, 11694.97, 27688.38, 7591.23, 20913.81, 77213.49, 42882.91, 17865.44, 0.00, 0.00, 0.00
215, 1955.71, 11708.04, 27775.37, 7623.62, 20938.49, 76599.00, 43058.62, 17923.13, 0.00, 0.00, 0.00
216, 1851.91, 11612.36, 27770.28, 7545.39, 20859.92, 78208.33, 43389.68, 17875.25, 0.00, 0.00, 0.00
217, 1816.59, 11581.11, 27671.17, 7500.42, 20812.07, 79211.88, 43296.51, 17799.16, 0.01, 0.99, 0.09
218, 1919.95, 11690.14, 27646.16, 7579.95, 20892.91, 77574.16, 42894.25, 17832.36, 0.00, 0.00, 0.00
219, 1951.89, 11706.03, 27713.10, 7625.65, 20941.08, 76556.64, 42984.55, 17901.76, 0.00, 0.00, 0.00
220, 1863.35, 11614.37, 27721.91, 7557.79, 20864.95, 77882.30, 43322.17, 17870.08, 0.00, 0.00, 0.00
221, 1807.79, 11575.14, 27633.88, 7500.44, 20803.46, 79246.56, 43344.86, 17799.36, 0.00, 0.00, 0.00
222, 1893.15, 11643.87, 27570.18, 7555.81, 20860.39, 77960.11, 42932.45, 17804.33, 0.00, 0.00, 0.00
223, 1956.81, 11688.08, 27626.49, 7624.25, 20926.17, 76564.83, 42924.16, 17884.66, 0.00, 0.00, 0.00
224, 1883.76, 11626.28, 27660.26, 7577.67, 20875.93, 77552.13, 43265.91, 17874.38, 0.00, 0.00, 0.00
225, 1800.43, 11553.42, 27594.70, 7501.89, 20798.41, 79179.13, 43380.33, 17807.72, 0.00, 0.00, 0.00
226, 1866.46, 11613.90, 27513.79, 7536.02, 20839.07, 78327.84, 42993.27, 17788.72, 0.00, 0.00, 0.00
227, 1947.24, 11693.49, 27549.53, 7636.65, 20919.53, 76658.50, 42876.75, 17863.02, 0.02, 0.98, 0.09
228, 1900.95, 11649.33, 27603.15, 7626.75, 20889.78, 77260.50, 43196.98, 17878.29, 0.00, 0.00, 0.00
229, 1804.41, 11567.83, 27551.23, 7530.53, 20807.44, 79021.39, 43398.46, 17808.26, 0.00, 0.00, 0.00
230, 1847.17, 11610.57, 27461.67, 7535.80, 20817.95, 78660.08, 43064.86, 17769.37, 0.00, 0.00, 0.00
231, 1947.44, 11699.57, 27489.94, 7622.59, 20903.93, 76818.47, 42851.89, 17837.50, 0.00, 0.00, 0.00
232, 1917.40, 11670.58, 27543.23, 7612.58, 20897.96, 77006.43, 43141.84, 17866.22, 0.00, 0.00, 0.00
233, 1823.59, 11582.56, 27507.80, 7527.58, 20816.04, 78786.63, 43402.35, 17813.18, 0.00, 0.00, 0.00
234, 1851.13, 11613.83, 27426.33, 7535.71, 20813.85, 78927.80, 43149.91, 17768.32, 0.00, 0.00, 0.00
235, 1953.18, 11711.06, 27438.98, 7622.88, 20899.04, 77066.66, 42857.43, 17824.73, 0.00, 0.00, 0.00
236, 1940.89, 11696.44, 27498.95, 7628.96, 20905.00, 76836.58, 43075.30, 17862.64, 0.00, 0.00, 0.00
237, 1837.96, 11597.11, 27474.41, 7544.90, 20816.13, 78517.25, 43362.45, 17806.94, 0.01, 0.99, 0.09
238, 1831.93, 11592.11, 27390.43, 7523.06, 20787.28, 79135.55, 43199.91, 17750.28, 0.00, 0.00, 0.00
239, 1942.79, 11700.91, 27385.40, 7611.82, 20880.04, 77374.90, 42854.35, 17797.08, 0.00, 0.00, 0.00
240, 1953.23, 11716.43, 27447.67, 7645.28, 20907.24, 76705.69, 43003.05, 17850.75, 0.00, 0.00, 0.00
241, 1858.75, 11618.66, 27454.49, 7574.63, 20838.02, 78183.83, 43326.53, 17824.06, 0.00, 0.00, 0.00
242, 1816.57, 11572.50, 27387.66, 7519.40, 20779.70, 79223.66, 43271.52, 17755.69, 0.00, 0.00, 0.00
243, 1921.13, 11679.19, 27367.38, 7593.02, 20852.28, 77711.65, 42895.61, 17787.94, 0.00, 0.00, 0.00
244, 1966.91, 11718.75, 27405.45, 7644.81, 20911.20, 76641.07, 42965.95, 17861.26, 0.00, 0.00, 0.00
245, 1876.54, 11636.07, 27360.19, 7578.27, 20847.99, 77868.11, 43296.69, 17836.56, 0.00, 0.00, 0.00
246, 1810.27, 11575.77, 27250.98, 7504.55, 20779.46, 79240.69, 43327.71, 17764.34, 0.00, 0.00, 0.00
247, 1892.68, 11652.01, 27187.37, 7549.15, 20832.03, 78079.42, 42940.00, 17767.89, 0.01, 0.98, 0.09
248, 1954.15, 11714.91, 27233.25, 7611.28, 20904.80, 76681.68, 42914.45, 17850.10, 0.00, 0.00, 0.00
249, 1889.19, 11654.89, 27262.78, 7566.80, 20874.99, 77562.25, 43238.64, 17846.06, 0.00, 0.00, 0.00
250, 1810.89, 11581.40, 27193.64, 7490.81, 20796.87, 79145.09, 43365.58, 17776.65, 0.00, 0.00, 0.00
251, 1870.44, 11637.08, 27120.67, 7519.64, 20818.91, 78421.63, 43016.64, 17760.67, 0.00, 0.00, 0.00
252, 1944.62, 11708.92, 27153.32, 7588.42, 20890.61, 76784.07, 42884.79, 17831.62, 0.00, 0.00, 0.00
253, 1893.35, 11662.47, 27198.25, 7567.23, 20868.97, 77285.11, 43177.18, 17847.20, 0.00, 0.00, 0.00
254, 1798.73, 11571.61, 27144.65, 7481.31, 20784.06, 78995.91, 43369.87, 17780.32, 0.00, 0.00, 0.00
255, 1844.33, 11614.32, 27072.34, 7495.19, 20807.98, 78736.34, 43073.35, 17751.31, 0.00, 0.00, 0.00
0, 1943.01, 11711.20, 27106.92, 7578.85, 20894.32, 76956.59, 42863.31, 17824.04, 0.00, 0.00, 0.00
1, 1913.33, 11688.69, 27175.05, 7575.74, 20884.71, 77059.16, 43121.68, 17848.76, 0.01, 0.99, 0.09
2, 1813.93, 11602.79, 27155.38, 7500.11, 20796.64, 78777.34, 43381.67, 17786.62, 0.00, 0.00, 0.00
3, 1824.26, 11612.58, 27083.72, 7488.50, 20778.83, 79022.42, 43154.36, 17736.76, 0.00, 0.00, 0.00
4, 1931.70, 11711.26, 27098.58, 7582.09, 20868.77, 77210.61, 42856.25, 17800.88, 0.00, 0.00, 0.00
5, 1936.13, 11700.87, 27165.55, 7608.51, 20893.67, 76867.87, 43064.43, 17851.02, 0.00, 0.00, 0.00
6, 1833.36, 11608.89, 27139.69, 7530.28, 20812.18, 78505.52, 43368.86, 17806.29, 0.00, 0.00, 0.00
7, 1814.76, 11602.52, 27043.24, 7498.03, 20776.88, 79220.23, 43227.96, 17741.09, 0.00, 0.00, 0.00
8, 1918.54, 11686.07, 27037.74, 7578.94, 20866.52, 77524.41, 42877.53, 17781.46, 0.00, 0.00, 0.00
9, 1937.25, 11701.61, 27110.56, 7619.62, 20912.00, 76768.00, 43013.54, 17847.49, 0.00, 0.00, 0.00
10, 1850.52, 11621.48, 27127.06, 7558.82, 20835.94, 78177.21, 43335.18, 17816.33, 0.00, 0.00, 0.00
11, 1809.35, 11581.87, 27054.91, 7505.94, 20779.92, 79290.27, 43296.31, 17747.08, 0.01, 0.99, 0.10
12, 1902.25, 11669.80, 27015.84, 7566.04, 20855.27, 77861.80, 42915.46, 17767.18, 0.00, 0.00, 0.00
13, 1944.98, 11711.69, 27068.43, 7612.74, 20912.54, 76724.73, 42956.25, 17839.55, 0.00, 0.00, 0.00
14, 1868.14, 11642.31, 27090.27, 7565.08, 20839.63, 77867.57, 43286.59, 17826.39, 0.00, 0.00, 0.00
15, 1801.06, 11577.93, 27013.96, 7494.45, 20762.51, 79296.66, 43345.57, 17749.65, 0.00, 0.00, 0.00
16, 1882.58, 11658.92, 26954.15, 7545.93, 20819.78, 78223.88, 42969.37, 17752.98, 0.00, 0.00, 0.00
17, 1951.31, 11727.45, 26997.64, 7615.86, 20894.50, 76738.48, 42909.63, 17825.11, 0.00, 0.00, 0.00
18, 1879.29, 11655.83, 27025.65, 7567.32, 20844.77, 77538.04, 43223.38, 17812.62, 0.00, 0.00, 0.00
19, 1796.74, 11576.66, 26982.42, 7486.45, 20766.67, 79196.72, 43371.52, 17749.21, 0.00, 0.00, 0.00
20, 1866.66, 11641.57, 26933.94, 7527.29, 20812.96, 78577.53, 43031.78, 17748.89, 0.00, 0.00, 0.00
21, 1945.45, 11725.12, 26988.86, 7603.57, 20896.56, 76859.87, 42876.19, 17821.63, 0.01, 0.98, 0.10
22, 1900.75, 11691.84, 27053.05, 7576.77, 20881.42, 77258.40, 43168.08, 17833.03, 0.00, 0.00, 0.00
23, 1803.52, 11587.05, 27025.27, 7489.85, 20788.89, 79023.90, 43383.55, 17771.33, 0.00, 0.00, 0.00
24, 1842.54, 11612.85, 26963.51, 7502.09, 20805.92, 78901.56, 43098.52, 17748.22, 0.00, 0.00, 0.00
25, 1941.94, 11712.29, 26994.29, 7590.23, 20889.80, 77058.59, 42855.07, 17823.50, 0.00, 0.00, 0.00
26, 1915.23, 11693.09, 27055.80, 7580.19, 20895.44, 77035.59, 43100.51, 17840.78, 0.00, 0.00, 0.00
27, 1812.35, 11597.29, 27034.23, 7501.45, 20796.53, 78795.35, 43389.41, 17794.42, 0.00, 0.00, 0.00
28, 1802.18, 11586.07, 26931.91, 7463.43, 20746.71, 79171.84, 43156.52, 17717.51, 0.00, 0.00, 0.00
29, 1905.02, 11680.24, 26937.34, 7536.61, 20816.60, 77291.13, 42806.59, 17743.15, 0.00, 0.00, 0.00
30, 1933.76, 11711.78, 27055.02, 7598.90, 20883.64, 76855.55, 43040.59, 17852.20, 0.01, 0.98, 0.10
31, 1838.12, 11616.63, 27063.63, 7525.90, 20820.27, 78506.70, 43380.33, 17834.37, 0.00, 0.00, 0.00
32, 1802.80, 11593.69, 26969.61, 7477.46, 20780.91, 79342.19, 43261.75, 17748.96, 0.00, 0.00, 0.00
33, 1901.26, 11689.72, 26954.66, 7555.98, 20845.64, 77635.63, 42874.13, 17775.07, 0.00, 0.00, 0.00
34, 1930.77, 11715.46, 27036.65, 7592.86, 20894.19, 76755.22, 42997.47, 17848.85, 0.00, 0.00, 0.00
35, 1828.06, 11619.69, 27037.14, 7511.71, 20813.81, 78136.24, 43325.91, 17797.11, 0.00, 0.00, 0.00
36, 1783.49, 11575.72, 26961.79, 7461.93, 20767.47, 79386.38, 43325.43, 17745.27, 0.00, 0.00, 0.00
37, 1881.15, 11676.01, 26942.21, 7525.05, 20838.06, 77996.92, 42931.73, 17772.38, 0.00, 0.00, 0.00
38, 1932.76, 11738.62, 27030.37, 7589.45, 20900.18, 76709.27, 42948.68, 17845.50, 0.00, 0.00, 0.00
39, 1836.40, 11648.54, 27057.86, 7512.64, 20831.36, 77803.31, 43281.38, 17813.13, 0.00, 0.00, 0.00
40, 1751.10, 11550.04, 26981.73, 7418.66, 20733.41, 79333.78, 43340.16, 17711.97, 0.01, 0.99, 0.10
41, 1857.54, 11651.25, 26963.54, 7503.03, 20819.46, 78321.80, 42972.28, 17752.49, 0.00, 0.00, 0.00
42, 1929.96, 11731.04, 27020.78, 7570.16, 20899.53, 76751.48, 42893.87, 17831.01, 0.00, 0.00, 0.00
43, 1849.61, 11658.87, 27062.33, 7522.01, 20839.20, 77505.07, 43202.07, 17808.28, 0.00, 0.00, 0.00
44, 1767.60, 11568.91, 27013.15, 7457.82, 20763.85, 79242.72, 43377.27, 17748.09, 0.00, 0.00, 0.00
45, 1820.21, 11614.95, 26901.64, 7476.28, 20788.20, 78690.32, 43025.16, 17720.08, 0.00, 0.00, 0.00
46, 1907.18, 11699.98, 26938.19, 7562.09, 20868.30, 76874.51, 42842.77, 17793.35, 0.00, 0.00, 0.00
47, 1870.66, 11669.93, 27007.70, 7556.83, 20858.58, 77212.40, 43152.52, 17825.58, 0.00, 0.00, 0.00
48, 1773.70, 11576.62, 26975.27, 7469.35, 20774.07, 79010.13, 43395.60, 17761.05, 0.00, 0.00, 0.00
49, 1795.76, 11597.63, 26894.65, 7477.24, 20778.16, 78990.30, 43116.13, 17712.95, 0.00, 0.00, 0.00
50, 1894.82, 11684.87, 26909.02, 7569.93, 20875.77, 77114.70, 42858.44, 17780.21, 0.01, 0.99, 0.10
51, 1878.95, 11673.73, 26972.47, 7574.74, 20876.10, 77011.62, 43103.32, 17823.41, 0.00, 0.00, 0.00
52, 1784.85, 11595.86, 26969.68, 7507.12, 20790.92, 78748.79, 43402.46, 17781.88, 0.00, 0.00, 0.00
53, 1782.53, 11591.10, 26895.58, 7486.94, 20771.86, 79218.13, 43214.13, 17725.34, 0.00, 0.00, 0.00
54, 1885.44, 11682.88, 26896.14, 7565.91, 20853.06, 77393.02, 42870.44, 17768.45, 0.00, 0.00, 0.00
55, 1885.35, 11680.64, 26966.69, 7587.99, 20872.97, 76865.26, 43048.68, 17816.22, 0.00, 0.00, 0.00
56, 1781.48, 11586.23, 26969.75, 7502.12, 20799.24, 78450.77, 43372.11, 17771.78, 0.00, 0.00, 0.00
57, 1753.85, 11571.14, 26889.19, 7451.02, 20756.95, 79371.63, 43269.33, 17705.80, 0.00, 0.00, 0.00
58, 1862.10, 11672.42, 26871.78, 7540.65, 20834.02, 77722.06, 42881.02, 17738.52, 0.00, 0.00, 0.00
59, 1902.16, 11718.95, 26952.85, 7593.36, 20891.64, 76748.31, 42981.82, 17817.09, 0.00, 0.00, 0.00
60, 1805.35, 11619.11, 26974.98, 7516.15, 20825.52, 78108.34, 43329.88, 17790.49, 0.01, 0.98, 0.10
61, 1738.70, 11545.53, 26893.93, 7448.14, 20747.43, 79480.88, 43336.97, 17709.44, 0.00, 0.00, 0.00
62, 1842.86, 11644.83, 26867.82, 7518.84, 20815.80, 78076.90, 42914.27, 17727.73, 0.00, 0.00, 0.00
63, 1906.29, 11706.50, 26935.91, 7580.73, 20888.51, 76627.56, 42912.35, 17810.79, 0.00, 0.00, 0.00
64, 1827.97, 11632.83, 26963.69, 7530.39, 20838.13, 77749.11, 43290.37, 17812.44, 0.00, 0.00, 0.00
65, 1732.04, 11547.94, 26892.48, 7441.10, 20752.10, 79530.66, 43412.88, 17735.01, 0.00, 0.00, 0.00
66, 1806.42, 11615.73, 26829.54, 7477.89, 20804.27, 78521.59, 42972.48, 17717.85, 0.00, 0.00, 0.00
67, 1895.87, 11701.41, 26899.41, 7567.50, 20893.29, 76708.66, 42862.04, 17803.99, 0.00, 0.00, 0.00
68, 1830.61, 11648.57, 26951.31, 7527.96, 20848.59, 77438.87, 43222.82, 17817.11, 0.00, 0.00, 0.00
69, 1732.51, 11556.39, 26900.17, 7434.93, 20755.00, 79360.34, 43431.18, 17745.94, 0.00, 0.00, 0.00
70, 1784.85, 11608.83, 26829.07, 7451.83, 20774.76, 78880.45, 43055.00, 17707.86, 0.01, 0.99, 0.11
71, 1882.67, 11696.53, 26873.68, 7536.56, 20865.08, 76897.38, 42841.79, 17782.55, 0.00, 0.00, 0.00
72, 1845.94, 11661.17, 26933.00, 7529.81, 20859.92, 77165.22, 43162.02, 17816.31, 0.00, 0.00, 0.00
73, 1754.63, 11574.02, 26912.13, 7453.77, 20783.39, 79083.77, 43441.11, 17762.77, 0.00, 0.00, 0.00
74, 1774.93, 11598.79, 26830.38, 7452.03, 20771.56, 79168.20, 43152.88, 17710.02, 0.00, 0.00, 0.00
75, 1875.47, 11702.21, 26854.26, 7541.88, 20860.44, 77162.69, 42848.76, 17771.02, 0.00, 0.00, 0.00
76, 1854.88, 11674.23, 26917.00, 7541.72, 20865.44, 76953.09, 43097.80, 17807.92, 0.00, 0.00, 0.00
77, 1751.75, 11575.34, 26902.51, 7457.19, 20778.58, 78793.77, 43427.00, 17760.07, 0.00, 0.00, 0.00
78, 1748.44, 11576.28, 26802.40, 7426.21, 20748.86, 79411.86, 43237.79, 17699.41, 0.00, 0.00, 0.00
79, 1857.45, 11681.00, 26783.60, 7503.46, 20830.69, 77475.81, 42841.72, 17740.09, 0.00, 0.00, 0.00
80, 1869.05, 11686.68, 26859.15, 7533.05, 20863.52, 76829.27, 43027.31, 17799.12, 0.02, 0.98, 0.10
81, 1763.49, 11592.04, 26854.03, 7449.50, 20778.47, 78457.26, 43368.13, 17750.44, 0.00, 0.00, 0.00
82, 1730.83, 11564.41, 26770.44, 7395.90, 20729.30, 79491.16, 43274.27, 17679.40, 0.00, 0.00, 0.00
83, 1840.49, 11673.87, 26761.38, 7474.71, 20811.42, 77859.73, 42873.17, 17717.51, 0.00, 0.00, 0.00
84, 1876.67, 11691.35, 26836.20, 7514.12, 20862.71, 76818.63, 42946.15, 17787.47, 0.00, 0.00, 0.00
85, 1788.47, 11610.50, 26875.56, 7452.81, 20807.44, 78104.28, 43285.31, 17768.05, 0.00, 0.00, 0.00
86, 1721.62, 11550.87, 26807.59, 7386.98, 20733.59, 79474.38, 43306.35, 17696.75, 0.00, 0.00, 0.00
87, 1809.33, 11634.10, 26780.99, 7445.39, 20784.17, 78229.29, 42910.52, 17700.41, 0.00, 0.00, 0.00
88, 1872.85, 11694.52, 26869.93, 7516.82, 20850.91, 76832.17, 42892.91, 17781.66, 0.00, 0.00, 0.00
89, 1807.94, 11637.57, 26936.06, 7476.30, 20811.80, 77778.32, 43233.12, 17786.20, 0.00, 0.00, 0.00
90, 1729.31, 11562.51, 26888.12, 7399.57, 20738.60, 79396.23, 43358.79, 17713.40, 0.02, 0.98, 0.10
91, 1796.95, 11625.28, 26835.84, 7434.39, 20776.15, 78592.84, 42998.72, 17697.69, 0.00, 0.00, 0.00
92, 1877.17, 11700.22, 26894.04, 7509.96, 20855.25, 76942.62, 42892.23, 17772.86, 0.00, 0.00, 0.00
93, 1823.66, 11651.54, 26953.39, 7476.46, 20824.25, 77519.16, 43216.63, 17780.66, 0.00, 0.00, 0.00
94, 1726.65, 11561.08, 26899.85, 7388.84, 20737.34, 79259.38, 43416.16, 17710.61, 0.00, 0.00, 0.00
95, 1766.03, 11598.63, 26815.16, 7407.28, 20751.58, 78931.85, 43102.01, 17681.55, 0.00, 0.00, 0.00
96, 1854.70, 11678.54, 26853.07, 7486.43, 20836.07, 77107.86, 42894.32, 17753.74, 0.00, 0.00, 0.00
97, 1831.57, 11650.42, 26932.69, 7471.58, 20829.70, 77243.06, 43180.62, 17781.55, 0.00, 0.00, 0.00
98, 1737.92, 11569.60, 26931.68, 7396.15, 20753.77, 79030.49, 43454.16, 17736.31, 0.00, 0.00, 0.00
99, 1732.42, 11574.87, 26861.12, 7395.88, 20748.74, 79234.27, 43194.66, 17699.07, 0.00, 0.00, 0.00
100, 1815.07, 11644.68, 26886.20, 7479.50, 20831.49, 77348.74, 42880.86, 17755.51, 0.02, 0.98, 0.11
101, 1791.67, 11615.13, 26958.35, 7480.01, 20838.15, 77038.66, 43083.30, 17792.52, 0.00, 0.00, 0.00
102, 1677.95, 11511.46, 26958.17, 7400.82, 20755.65, 78753.33, 43378.77, 17742.17, 0.00, 0.00, 0.00
103, 1630.63, 11465.98, 26862.97, 7358.10, 20711.15, 79439.28, 43210.57, 17668.32, 0.00, 0.00, 0.00
104, 1719.21, 11551.18, 26856.29, 7441.86, 20803.37, 77639.59, 42844.25, 17726.47, 0.00, 0.00, 0.00
105, 1727.54, 11561.86, 26940.51, 7479.54, 20850.29, 76919.48, 43016.55, 17803.46, 0.00, 0.00, 0.00
106, 1599.71, 11441.72, 26939.46, 7391.63, 20769.22, 78440.63, 43359.95, 17764.07, 0.00, 0.00, 0.00
107, 1538.69, 11383.39, 26857.77, 7333.90, 20710.50, 79573.28, 43310.17, 17695.74, 0.00, 0.00, 0.00
108, 1625.73, 11468.23, 26843.39, 7408.80, 20783.97, 78048.00, 42909.52, 17718.16, 0.00, 0.00, 0.00
109, 1639.70, 11483.45, 26924.02, 7454.69, 20832.94, 76913.83, 42978.89, 17787.85, 0.00, 0.00, 0.00
110, 1540.26, 11389.02, 26952.02, 7371.63, 20767.59, 78139.66, 43328.54, 17761.61, 0.02, 0.97, 0.11
111, 1460.15, 11313.87, 26877.84, 7290.71, 20694.12, 79565.46, 43365.16, 17686.06, 0.00, 0.00, 0.00
112, 1531.32, 11381.42, 26820.88, 7337.34, 20744.16, 78403.39, 42964.23, 17685.75, 0.00, 0.00, 0.00
113, 1588.94, 11438.53, 26878.20, 7406.38, 20818.97, 76947.35, 42924.87, 17768.36, 0.00, 0.00, 0.00
114, 1504.63, 11364.65, 26916.37, 7357.01, 20779.28, 77818.84, 43249.42, 17772.83, 0.00, 0.00, 0.00
115, 1421.70, 11292.06, 26855.15, 7276.65, 20700.26, 79456.63, 43369.27, 17705.15, 0.00, 0.00, 0.00
116, 1483.62, 11349.77, 26789.82, 7310.56, 20736.16, 78741.15, 42997.80, 17694.40, 0.00, 0.00, 0.00
117, 1541.09, 11411.17, 26839.75, 7370.62, 20797.81, 77046.91, 42845.36, 17760.90, 0.00, 0.00, 0.00
118, 1494.28, 11369.91, 26919.03, 7357.77, 20791.39, 77532.70, 43149.84, 17788.93, 0.00, 0.00, 0.00
119, 1392.54, 11267.58, 26878.04, 7274.55, 20708.44, 79273.41, 43360.21, 17717.98, 0.01, 0.97, 0.11
120, 1426.11, 11294.43, 26793.50, 7268.88, 20707.37, 79048.84, 43057.08, 17674.28, 0.00, 0.00, 0.00
121, 1519.07, 11371.32, 26840.73, 7337.83, 20786.43, 77231.29, 42825.45, 17728.96, 0.00, 0.00, 0.00
122, 1498.97, 11353.55, 26948.09, 7342.86, 20805.47, 77303.93, 43096.51, 17768.38, 0.00, 0.00, 0.00
123, 1416.72, 11281.04, 26985.13, 7272.27, 20759.96, 79035.84, 43379.88, 17726.63, 0.00, 0.00, 0.00
124, 1412.29, 11280.10, 26925.58, 7238.19, 20716.89, 79320.66, 43151.43, 17669.88, 0.00, 0.00, 0.00
125, 1531.90, 11407.08, 26973.14, 7321.16, 20798.23, 77512.43, 42865.57, 17720.73, 0.00, 0.00, 0.00
126, 1531.68, 11421.74, 27068.63, 7323.19, 20816.27, 77142.46, 43074.80, 17777.93, 0.00, 0.00, 0.00
127, 1428.88, 11298.34, 27100.33, 7230.79, 20746.20, 78748.34, 43381.25, 17732.46, 0.00, 0.00, 0.00
128, 1422.87, 11275.31, 27040.11, 7192.08, 20731.94, 79473.28, 43248.63, 17654.39, 0.00, 0.00, 0.00
129, 1547.39, 11396.89, 27041.36, 7273.39, 20790.34, 77791.45, 42886.92, 17713.56, 0.01, 0.99, 0.11
130, 1574.81, 11429.59, 27120.22, 7298.81, 20826.51, 76999.27, 43018.32, 17781.39, 0.00, 0.00, 0.00
131, 1492.94, 11342.91, 27121.38, 7218.07, 20767.23, 78409.27, 43348.68, 17736.40, 0.00, 0.00, 0.00
132, 1452.82, 11304.01, 27019.99, 7159.42, 20704.11, 79525.73, 43297.20, 17653.32, 0.00, 0.00, 0.00
133, 1548.17, 11375.67, 26976.43, 7222.47, 20769.08, 78101.91, 42910.92, 17669.17, 0.00, 0.00, 0.00
134, 1607.69, 11432.67, 27019.62, 7276.90, 20830.37, 76936.94, 42942.21, 17744.18, 0.00, 0.00, 0.00
135, 1538.45, 11377.89, 27024.58, 7225.29, 20768.26, 78045.09, 43257.87, 17725.71, 0.00, 0.00, 0.00
136, 1487.91, 11319.48, 26956.40, 7175.60, 20704.96, 79484.73, 43319.60, 17654.90, 0.00, 0.00, 0.00
137, 1572.94, 11384.26, 26892.21, 7223.88, 20763.81, 78446.35, 42939.22, 17661.19, 0.00, 0.00, 0.00
138, 1650.70, 11464.08, 26947.06, 7293.55, 20853.37, 76970.64, 42888.01, 17752.40, 0.00, 0.00, 0.00
139, 1593.84, 11418.54, 26954.84, 7250.32, 20789.71, 77743.19, 43196.15, 17732.09, 0.02, 1.00, 0.11
140, 1519.20, 11339.46, 26891.79, 7170.91, 20707.01, 79357.41, 43339.20, 17654.01, 0.00, 0.00, 0.00
141, 1588.18, 11411.95, 26799.99, 7197.17, 20738.33, 78757.62, 43006.16, 17631.64, 0.00, 0.00, 0.00
142, 1701.21, 11503.62, 26833.36, 7298.94, 20834.02, 77087.59, 42879.59, 17719.52, 0.00, 0.00, 0.00
143, 1666.50, 11467.45, 26901.87, 7275.38, 20823.69, 77491.64, 43192.80, 17745.12, 0.00, 0.00, 0.00
144, 1575.95, 11384.82, 26851.89, 7166.59, 20734.17, 79190.55, 43405.70, 17665.68, 0.00, 0.00, 0.00
145, 1616.81, 11419.57, 26744.24, 7158.08, 20739.33, 79066.01, 43122.88, 17623.57, 0.00, 0.00, 0.00
146, 1729.22, 11519.87, 26754.52, 7251.00, 20836.63, 77275.77, 42896.66, 17709.85, 0.00, 0.00, 0.00
147, 1706.94, 11507.88, 26802.02, 7240.69, 20845.06, 77246.80, 43143.31, 17745.38, 0.00, 0.00, 0.00
148, 1607.94, 11427.46, 26785.41, 7145.54, 20767.88, 78921.19, 43405.30, 17698.87, 0.00, 0.00, 0.00
149, 1631.19, 11433.50, 26740.29, 7143.19, 20757.46, 79271.42, 43215.42, 17660.25, 0.01, 0.98, 0.11
150, 1733.94, 11528.16, 26743.88, 7215.68, 20828.38, 77496.09, 42885.26, 17697.91, 0.00, 0.00, 0.00
151, 1743.53, 11541.70, 26818.94, 7240.60, 20849.13, 77054.41, 43053.19, 17751.53, 0.00, 0.00, 0.00
152, 1645.85, 11445.32, 26819.23, 7149.16, 20766.47, 78621.55, 43353.78, 17698.96, 0.00, 0.00, 0.00
153, 1626.07, 11427.51, 26711.85, 7085.64, 20725.56, 79442.03, 43232.95, 17634.99, 0.00, 0.00, 0.00
154, 1721.20, 11518.99, 26699.63, 7168.38, 20792.40, 77815.88, 42860.83, 17658.97, 0.00, 0.00, 0.00
155, 1753.02, 11551.52, 26791.29, 7209.29, 20835.07, 76939.41, 42973.53, 17721.67, 0.00, 0.00, 0.00
156, 1677.30, 11492.69, 26838.74, 7154.41, 20776.19, 78280.68, 43295.98, 17700.12, 0.00, 0.00, 0.00
157, 1638.79, 11450.78, 26829.13, 7114.07, 20720.47, 79471.22, 43283.05, 17630.45, 0.00, 0.00, 0.00
158, 1730.14, 11531.91, 26799.18, 7161.30, 20784.04, 78128.24, 42895.52, 17647.21, 0.00, 0.00, 0.00
159, 1788.45, 11585.13, 26890.15, 7240.71, 20853.98, 76891.20, 42915.21, 17735.95, 0.01, 0.98, 0.11
160, 1705.42, 11510.10, 26945.09, 7189.42, 20798.77, 77941.11, 43248.61, 17713.49, 0.00, 0.00, 0.00
161, 1629.13, 11438.62, 26881.62, 7120.80, 20721.16, 79426.18, 43329.04, 17633.58, 0.00, 0.00, 0.00
162, 1704.88, 11498.74, 26834.65, 7190.49, 20766.49, 78465.20, 42956.03, 17630.09, 0.00, 0.00, 0.00
163, 1778.15, 11566.42, 26888.57, 7272.50, 20848.88, 76928.60, 42884.14, 17711.63, 0.00, 0.00, 0.00
164, 1725.17, 11520.78, 26943.75, 7250.62, 20824.14, 77633.10, 43211.13, 17722.45, 0.00, 0.00, 0.00
165, 1630.36, 11431.82, 26859.44, 7163.80, 20736.63, 79306.83, 43371.91, 17640.76, 0.00, 0.00, 0.00
166, 1680.72, 11477.80, 26761.70, 7198.87, 20750.17, 78796.40, 43030.44, 17603.14, 0.00, 0.00, 0.00
167, 1786.15, 11583.61, 26793.68, 7308.73, 20838.40, 77075.92, 42878.58, 17681.41, 0.00, 0.00, 0.00
168, 1745.54, 11552.34, 26848.11, 7303.97, 20815.31, 77397.41, 43172.91, 17694.04, 0.00, 0.00, 0.00
169, 1654.36, 11460.05, 26807.92, 7221.54, 20725.14, 79121.95, 43407.40, 17627.86, 0.01, 0.99, 0.09
170, 1685.46, 11486.18, 26718.40, 7237.56, 20727.93, 79104.12, 43130.02, 17582.80, 0.00, 0.00, 0.00
171, 1797.10, 11588.26, 26753.88, 7343.29, 20824.74, 77258.73, 42869.04, 17657.63, 0.00, 0.00, 0.00
172, 1785.79, 11581.65, 26833.38, 7362.82, 20825.92, 77143.13, 43110.79, 17699.14, 0.00, 0.00, 0.00
173, 1671.37, 11471.83, 26812.57, 7272.39, 20734.91, 78843.12, 43387.86, 17627.30, 0.00, 0.00, 0.00
174, 1667.06, 11468.19, 26728.39, 7259.38, 20716.89, 79307.54, 43203.24, 17584.32, 0.00, 0.00, 0.00
175, 1776.54, 11574.63, 26742.43, 7358.24, 20813.70, 77535.27, 42876.63, 17643.04, 0.00, 0.00, 0.00
176, 1784.03, 11579.75, 26821.71, 7377.62, 20842.91, 76994.91, 43044.34, 17694.11, 0.00, 0.00, 0.00
177, 1683.29, 11486.74, 26862.41, 7307.32, 20760.93, 78541.01, 43350.83, 17648.69, 0.00, 0.00, 0.00
178, 1655.57, 11465.64, 26815.23, 7259.11, 20717.56, 79462.64, 43255.18, 17583.18, 0.00, 0.00, 0.00
