%OpenBCI Raw EEG Data
%
%Sample Rate = 250.0 Hz
%First Column = SampleIndex
%Other Columns = EEG data in microvolts followed by Accel Data (in G) interleaved with Aux Data
0, 14236.54, 8118.96, -4257.29, -12205.19, -18969.84, -12904.87, -1635.59, -32788.60, 0.01, 0.48, 0.11
1, 14120.85, 8012.72, -4393.08, -12344.62, -18944.53, -12988.33, -1753.40, -32941.17, 0.00, 0.00, 0.00
2, 14102.63, 7994.32, -4418.27, -12356.13, -19066.28, -13013.86, -1782.26, -32945.82, 0.00, 0.00, 0.00
3, 14223.73, 8105.03, -4275.69, -12202.84, -19097.51, -12919.22, -1652.51, -32779.04, 0.00, 0.00, 0.00
4, 14242.96, 8123.54, -4253.49, -12189.01, -18988.95, -12888.53, -1619.38, -32768.42, 0.00, 0.00, 0.00
5, 14123.89, 8015.98, -4392.03, -12335.97, -18937.02, -12967.90, -1735.48, -32923.85, 0.00, 0.00, 0.00
6, 14075.59, 7969.65, -4450.50, -12383.60, -19043.22, -13017.32, -1791.96, -32965.27, 0.00, 0.00, 0.00
7, 14192.20, 8073.41, -4319.63, -12237.96, -19100.30, -12934.69, -1671.69, -32804.98, 0.02, 0.97, 0.22
8, 14251.45, 8128.39, -4252.42, -12177.48, -19001.24, -12873.98, -1601.30, -32739.76, 0.00, 0.00, 0.00
9, 14150.35, 8037.75, -4370.88, -12307.72, -18920.91, -12936.07, -1697.82, -32879.95, 0.00, 0.00, 0.00
10, 14079.56, 7970.88, -4460.04, -12386.15, -19011.16, -13004.22, -1783.94, -32963.43, 0.00, 0.00, 0.00
11, 14183.05, 8066.83, -4346.05, -12255.51, -19096.10, -12937.23, -1689.81, -32827.27, 0.00, 0.00, 0.00
12, 14263.00, 8141.42, -4255.79, -12168.00, -19016.95, -12868.10, -1601.75, -32735.65, 0.00, 0.00, 0.00
13, 14171.54, 8055.70, -4363.66, -12289.86, -18939.62, -12932.23, -1693.97, -32870.52, 0.00, 0.00, 0.00
14, 14078.47, 7967.99, -4474.69, -12398.11, -19015.19, -13020.70, -1802.91, -32986.01, 0.00, 0.00, 0.00
15, 14160.52, 8040.70, -4379.22, -12288.56, -19103.86, -12969.62, -1723.70, -32866.81, 0.00, 0.00, 0.00
16, 14265.89, 8137.02, -4250.43, -12164.24, -19044.69, -12875.88, -1602.75, -32732.77, 0.00, 0.00, 0.00
17, 14203.86, 8082.26, -4319.00, -12250.59, -18933.29, -12906.05, -1654.32, -32826.66, 0.01, 0.97, 0.22
18, 14083.01, 7969.49, -4459.64, -12396.08, -18972.88, -13003.44, -1780.36, -32975.35, 0.00, 0.00, 0.00
19, 14124.25, 8005.81, -4416.01, -12336.33, -19093.02, -12990.07, -1747.95, -32905.52, 0.00, 0.00, 0.00
20, 14250.26, 8121.13, -4272.13, -12192.14, -19067.96, -12892.62, -1614.78, -32748.75, 0.00, 0.00, 0.00
21, 14229.72, 8105.17, -4299.78, -12234.88, -18946.88, -12895.70, -1630.20, -32797.77, 0.00, 0.00, 0.00
22, 14105.60, 7988.98, -4452.00, -12389.59, -18953.72, -12989.00, -1760.47, -32958.81, 0.00, 0.00, 0.00
23, 14115.22, 7996.05, -4447.19, -12368.94, -19076.88, -13003.42, -1761.76, -32926.71, 0.00, 0.00, 0.00
24, 14243.89, 8112.41, -4299.02, -12214.80, -19081.53, -12904.58, -1625.89, -32760.19, 0.00, 0.00, 0.00
25, 14231.22, 8106.69, -4309.60, -12236.60, -18975.09, -12894.70, -1626.58, -32789.74, 0.00, 0.00, 0.00
26, 14107.04, 7995.02, -4456.04, -12388.54, -18950.57, -12980.17, -1753.23, -32947.39, 0.02, 0.97, 0.23
27, 14087.63, 7971.70, -4480.45, -12402.56, -19066.51, -13010.82, -1784.92, -32951.75, 0.00, 0.00, 0.00
28, 14215.35, 8085.45, -4332.48, -12240.13, -19097.80, -12918.46, -1651.82, -32784.78, 0.00, 0.00, 0.00
29, 14251.76, 8118.94, -4288.99, -12204.92, -18976.25, -12873.02, -1603.94, -32753.93, 0.00, 0.00, 0.00
30, 14128.22, 8003.11, -4427.50, -12357.52, -18935.15, -12954.20, -1729.04, -32916.09, 0.00, 0.00, 0.00
31, 14082.20, 7958.14, -4485.48, -12408.21, -19044.00, -13011.67, -1793.55, -32966.96, 0.00, 0.00, 0.00
32, 14194.41, 8056.82, -4355.51, -12265.32, -19101.73, -12933.14, -1675.75, -32809.97, 0.00, 0.00, 0.00
33, 14254.44, 8115.27, -4286.48, -12201.39, -19008.93, -12874.25, -1602.44, -32744.99, 0.00, 0.00, 0.00
34, 14158.96, 8031.14, -4405.33, -12329.33, -18928.60, -12938.28, -1697.77, -32884.49, 0.00, 0.00, 0.00
35, 14092.60, 7970.54, -4490.78, -12406.56, -19004.32, -13002.55, -1777.61, -32962.38, 0.00, 0.00, 0.00
36, 14176.55, 8046.31, -4394.69, -12296.63, -19101.13, -12948.03, -1696.97, -32842.00, 0.02, 0.97, 0.23
37, 14258.47, 8121.75, -4295.71, -12205.15, -19042.97, -12880.95, -1607.31, -32746.33, 0.00, 0.00, 0.00
38, 14178.69, 8049.98, -4378.59, -12315.12, -18946.59, -12935.38, -1681.72, -32863.43, 0.00, 0.00, 0.00
39, 14081.29, 7955.41, -4491.56, -12432.31, -19006.20, -13021.46, -1791.22, -32986.73, 0.00, 0.00, 0.00
40, 14162.09, 8024.03, -4403.32, -12332.66, -19098.63, -12980.86, -1722.54, -32884.02, 0.00, 0.00, 0.00
41, 14274.74, 8131.05, -4264.13, -12201.71, -19046.57, -12891.39, -1602.40, -32750.87, 0.00, 0.00, 0.00
42, 14213.05, 8076.91, -4331.46, -12285.88, -18952.04, -12920.34, -1653.49, -32831.07, 0.00, 0.00, 0.00
43, 14108.22, 7978.99, -4457.23, -12415.14, -18974.11, -13002.77, -1764.20, -32959.68, 0.00, 0.00, 0.00
44, 14143.58, 8009.73, -4420.04, -12359.96, -19084.41, -12986.45, -1731.12, -32892.36, 0.00, 0.00, 0.00
45, 14260.10, 8120.21, -4284.16, -12217.49, -19070.11, -12892.58, -1602.46, -32739.63, 0.00, 0.00, 0.00
46, 14231.40, 8094.97, -4318.29, -12265.27, -18954.53, -12896.11, -1620.77, -32793.07, 0.03, 0.96, 0.22
47, 14113.25, 7986.55, -4461.92, -12411.01, -18946.99, -12986.72, -1743.91, -32947.50, 0.00, 0.00, 0.00
48, 14110.50, 7979.57, -4467.20, -12399.63, -19072.74, -13004.36, -1758.21, -32931.29, 0.00, 0.00, 0.00
49, 14235.58, 8089.30, -4322.89, -12249.00, -19092.90, -12911.35, -1626.36, -32767.34, 0.00, 0.00, 0.00
50, 14244.32, 8098.89, -4312.12, -12251.48, -18983.02, -12893.69, -1607.52, -32771.90, 0.00, 0.00, 0.00
51, 14122.30, 7987.40, -4453.94, -12401.19, -18948.33, -12980.15, -1732.37, -32932.77, 0.00, 0.00, 0.00
52, 14098.65, 7964.80, -4485.23, -12418.65, -19061.95, -13013.27, -1769.43, -32946.54, 0.00, 0.00, 0.00
53, 14222.19, 8079.64, -4344.87, -12265.30, -19105.53, -12923.49, -1642.58, -32781.04, 0.00, 0.00, 0.00
54, 14262.63, 8120.41, -4299.18, -12224.88, -19002.16, -12878.38, -1591.65, -32743.81, 0.00, 0.00, 0.00
55, 14150.73, 8020.95, -4430.29, -12366.62, -18938.88, -12951.18, -1700.43, -32896.09, 0.00, 0.00, 0.00
56, 14091.10, 7968.20, -4506.47, -12428.04, -19038.84, -13010.37, -1770.46, -32955.90, 0.03, 0.96, 0.23
57, 14203.26, 8066.48, -4386.51, -12287.02, -19100.82, -12932.96, -1662.95, -32807.22, 0.00, 0.00, 0.00
58, 14279.77, 8137.40, -4299.96, -12208.57, -19020.46, -12867.50, -1584.56, -32733.06, 0.00, 0.00, 0.00
59, 14182.25, 8050.90, -4410.87, -12335.39, -18943.48, -12926.59, -1678.35, -32863.46, 0.00, 0.00, 0.00
60, 14091.75, 7965.16, -4519.39, -12441.41, -19030.19, -13010.55, -1784.99, -32970.30, 0.00, 0.00, 0.00
61, 14188.46, 8052.39, -4411.47, -12317.40, -19118.43, -12948.92, -1694.35, -32838.36, 0.00, 0.00, 0.00
62, 14289.38, 8147.05, -4297.48, -12202.89, -19047.15, -12861.51, -1585.43, -32725.41, 0.00, 0.00, 0.00
63, 14205.63, 8071.10, -4397.55, -12312.88, -18946.88, -12909.45, -1657.99, -32842.69, 0.00, 0.00, 0.00
64, 14094.27, 7969.31, -4526.79, -12440.40, -18998.20, -12998.46, -1774.53, -32967.61, 0.00, 0.00, 0.00
65, 14155.76, 8024.07, -4456.78, -12359.89, -19103.79, -12972.86, -1719.39, -32872.91, 0.00, 0.00, 0.00
66, 14265.24, 8123.03, -4325.26, -12231.61, -19065.14, -12882.70, -1592.16, -32727.42, 0.02, 0.96, 0.22
67, 14218.86, 8081.83, -4377.72, -12304.81, -18951.95, -12905.56, -1627.97, -32805.30, 0.00, 0.00, 0.00
68, 14103.86, 7972.84, -4515.30, -12451.84, -18974.33, -13005.07, -1755.37, -32958.03, 0.00, 0.00, 0.00
69, 14134.42, 7999.73, -4484.81, -12407.65, -19095.50, -13001.94, -1740.40, -32906.44, 0.00, 0.00, 0.00
70, 14268.50, 8122.85, -4331.75, -12249.72, -19079.13, -12898.66, -1601.99, -32740.63, 0.00, 0.00, 0.00
71, 14247.67, 8105.61, -4359.53, -12287.00, -18965.61, -12899.55, -1614.51, -32785.63, 0.00, 0.00, 0.00
72, 14119.46, 7987.06, -4508.39, -12436.67, -18956.78, -12990.34, -1742.07, -32945.15, 0.00, 0.00, 0.00
73, 14106.14, 7971.77, -4523.01, -12435.46, -19071.67, -13015.24, -1764.49, -32938.18, 0.00, 0.00, 0.00
74, 14231.02, 8083.82, -4377.66, -12280.43, -19102.76, -12916.02, -1632.10, -32766.09, 0.00, 0.00, 0.00
75, 14250.31, 8105.61, -4358.28, -12269.41, -18997.28, -12886.03, -1603.87, -32761.71, 0.00, 0.00, 0.00
76, 14124.16, 7985.07, -4510.96, -12430.36, -18965.48, -12978.58, -1737.36, -32932.57, 0.02, 0.97, 0.22
77, 14098.54, 7959.57, -4550.26, -12462.13, -19073.59, -13013.01, -1777.32, -32952.59, 0.00, 0.00, 0.00
78, 14226.42, 8079.06, -4407.38, -12303.65, -19119.26, -12918.62, -1648.02, -32774.92, 0.00, 0.00, 0.00
79, 14277.96, 8126.00, -4351.37, -12255.06, -19018.96, -12874.25, -1591.44, -32731.13, 0.00, 0.00, 0.00
80, 14164.57, 8019.05, -4482.02, -12399.72, -18947.64, -12953.26, -1700.10, -32885.20, 0.00, 0.00, 0.00
81, 14091.61, 7952.04, -4569.95, -12482.33, -19048.65, -13027.13, -1789.97, -32964.62, 0.00, 0.00, 0.00
82, 14200.76, 8052.64, -4447.08, -12341.87, -19123.97, -12956.32, -1683.04, -32815.71, 0.00, 0.00, 0.00
83, 14279.28, 8124.97, -4357.11, -12252.87, -19037.25, -12886.05, -1593.61, -32727.71, 0.00, 0.00, 0.00
84, 14193.09, 8044.97, -4471.44, -12376.83, -18947.26, -12945.28, -1684.36, -32861.58, 0.00, 0.00, 0.00
85, 14093.53, 7948.48, -4601.06, -12501.11, -19039.53, -13045.80, -1808.01, -32990.66, 0.00, 0.00, 0.00
86, 14171.61, 8018.44, -4498.11, -12382.49, -19130.61, -12991.62, -1718.69, -32859.66, 0.02, 0.96, 0.23
87, 14272.84, 8113.77, -4373.25, -12259.78, -19060.03, -12894.32, -1597.72, -32730.66, 0.00, 0.00, 0.00
88, 14214.79, 8066.54, -4444.58, -12348.20, -18949.41, -12925.66, -1651.77, -32826.48, 0.00, 0.00, 0.00
89, 14114.90, 7971.93, -4573.75, -12478.53, -18994.31, -13014.75, -1771.02, -32963.82, 0.00, 0.00, 0.00
90, 14173.58, 8019.96, -4515.37, -12408.24, -19112.10, -12993.83, -1728.93, -32883.77, 0.00, 0.00, 0.00
91, 14297.74, 8131.14, -4375.33, -12267.24, -19080.59, -12897.09, -1599.51, -32733.17, 0.00, 0.00, 0.00
92, 14261.33, 8096.45, -4423.95, -12328.37, -18964.65, -12911.51, -1631.74, -32802.28, 0.00, 0.00, 0.00
93, 14131.80, 7980.38, -4577.82, -12484.05, -18974.06, -13014.01, -1766.97, -32968.78, 0.00, 0.00, 0.00
94, 14137.77, 7986.70, -4570.31, -12460.58, -19112.17, -13028.00, -1770.55, -32936.34, 0.00, 0.00, 0.00
95, 14265.78, 8106.35, -4425.42, -12303.79, -19121.25, -12921.92, -1636.73, -32771.03, 0.00, 0.00, 0.00
96, 14271.10, 8115.14, -4425.02, -12312.86, -18995.83, -12901.96, -1623.18, -32785.36, 0.02, 0.97, 0.22
97, 14142.33, 7997.01, -4573.03, -12464.61, -18976.43, -12988.96, -1747.10, -32942.71, 0.00, 0.00, 0.00
98, 14133.61, 7988.71, -4583.98, -12461.79, -19090.11, -13012.31, -1766.21, -32937.80, 0.00, 0.00, 0.00
99, 14258.02, 8100.27, -4445.56, -12310.85, -19122.05, -12924.81, -1642.72, -32781.98, 0.00, 0.00, 0.00
100, 14290.65, 8131.36, -4413.51, -12288.07, -19006.71, -12886.43, -1603.00, -32759.43, 0.00, 0.00, 0.00
101, 14168.35, 8020.61, -4553.56, -12437.43, -18955.31, -12969.00, -1721.06, -32918.48, 0.00, 0.00, 0.00
102, 14126.59, 7981.96, -4602.98, -12478.89, -19056.52, -13014.35, -1771.31, -32955.95, 0.00, 0.00, 0.00
103, 14234.98, 8080.47, -4475.13, -12344.38, -19116.98, -12938.15, -1659.19, -32803.89, 0.00, 0.00, 0.00
104, 14284.08, 8128.57, -4413.89, -12289.91, -19019.77, -12886.70, -1596.72, -32753.11, 0.00, 0.00, 0.00
105, 14170.85, 8025.95, -4543.73, -12433.96, -18951.13, -12959.43, -1706.85, -32908.83, 0.02, 0.97, 0.22
106, 14097.25, 7957.98, -4632.91, -12520.35, -19037.40, -13033.35, -1792.86, -32991.66, 0.00, 0.00, 0.00
107, 14207.42, 8058.12, -4508.79, -12385.68, -19112.69, -12963.72, -1688.96, -32844.41, 0.00, 0.00, 0.00
108, 14287.28, 8132.37, -4412.84, -12295.94, -19047.62, -12892.06, -1602.31, -32759.68, 0.00, 0.00, 0.00
109, 14196.75, 8052.73, -4514.29, -12414.29, -18957.83, -12949.35, -1691.36, -32894.66, 0.00, 0.00, 0.00
110, 14099.59, 7964.44, -4624.93, -12525.60, -19028.11, -13033.79, -1801.28, -33008.00, 0.00, 0.00, 0.00
111, 14178.94, 8037.91, -4532.87, -12421.11, -19127.26, -12987.53, -1729.65, -32894.55, 0.00, 0.00, 0.00
112, 14285.40, 8138.90, -4404.90, -12299.58, -19070.02, -12901.74, -1614.62, -32775.08, 0.00, 0.00, 0.00
113, 14223.40, 8085.45, -4472.23, -12390.40, -18961.86, -12929.39, -1669.47, -32866.94, 0.00, 0.00, 0.00
114, 14112.06, 7982.12, -4602.05, -12525.43, -18998.04, -13014.24, -1791.18, -32996.23, 0.00, 0.00, 0.00
115, 14168.43, 8035.59, -4538.48, -12448.38, -19104.30, -12983.32, -1743.79, -32909.50, 0.02, 0.97, 0.22
116, 14284.13, 8143.10, -4404.01, -12312.06, -19079.58, -12886.76, -1621.66, -32767.21, 0.00, 0.00, 0.00
117, 14254.82, 8121.42, -4440.38, -12364.38, -18964.90, -12894.43, -1648.04, -32829.17, 0.00, 0.00, 0.00
118, 14136.03, 8014.82, -4583.05, -12509.76, -18973.54, -12982.29, -1775.91, -32979.44, 0.00, 0.00, 0.00
119, 14151.04, 8033.91, -4565.54, -12481.79, -19097.08, -12985.42, -1772.16, -32935.18, 0.00, 0.00, 0.00
120, 14273.47, 8150.99, -4426.03, -12336.29, -19104.19, -12894.52, -1648.78, -32780.33, 0.00, 0.00, 0.00
121, 14267.86, 8152.11, -4428.06, -12354.61, -18989.42, -12881.04, -1645.80, -32803.26, 0.00, 0.00, 0.00
122, 14145.05, 8043.21, -4567.13, -12503.61, -18977.12, -12964.41, -1770.30, -32961.31, 0.00, 0.00, 0.00
123, 14120.87, 8020.54, -4599.90, -12524.51, -19097.53, -12997.43, -1806.78, -32974.01, 0.00, 0.00, 0.00
124, 14242.29, 8135.59, -4459.28, -12373.30, -19134.93, -12908.91, -1679.69, -32807.80, 0.00, 0.00, 0.00
125, 14270.49, 8166.57, -4424.68, -12348.42, -19024.55, -12868.77, -1634.74, -32784.66, 0.02, 0.97, 0.22
126, 14152.88, 8059.21, -4565.95, -12502.60, -18970.84, -12953.30, -1751.86, -32946.22, 0.00, 0.00, 0.00
127, 14105.27, 8016.88, -4625.11, -12551.53, -19073.44, -13004.85, -1809.57, -32986.59, 0.00, 0.00, 0.00
128, 14223.04, 8126.07, -4489.41, -12400.21, -19126.50, -12921.68, -1688.72, -32825.26, 0.00, 0.00, 0.00
129, 14289.38, 8190.66, -4413.58, -12332.95, -19027.62, -12862.87, -1608.54, -32751.90, 0.00, 0.00, 0.00
130, 14192.28, 8099.33, -4525.71, -12460.54, -18939.21, -12924.45, -1699.89, -32891.64, 0.00, 0.00, 0.00
131, 14103.41, 8016.27, -4627.71, -12558.26, -19029.13, -13004.49, -1798.76, -32988.36, 0.00, 0.00, 0.00
132, 14198.43, 8100.85, -4516.13, -12434.14, -19113.63, -12942.87, -1707.65, -32855.14, 0.00, 0.00, 0.00
133, 14279.68, 8176.18, -4418.69, -12344.40, -19043.66, -12869.62, -1612.72, -32758.25, 0.00, 0.00, 0.00
134, 14201.83, 8105.17, -4511.23, -12448.87, -18943.68, -12911.84, -1684.54, -32869.89, 0.00, 0.00, 0.00
135, 14092.46, 8001.81, -4643.89, -12576.90, -19014.16, -13008.07, -1807.41, -33002.77, 0.02, 0.96, 0.23
136, 14167.45, 8070.48, -4565.57, -12482.69, -19118.47, -12971.77, -1741.18, -32894.41, 0.00, 0.00, 0.00
137, 14282.18, 8176.92, -4435.55, -12351.39, -19062.28, -12874.63, -1615.76, -32755.18, 0.00, 0.00, 0.00
138, 14225.01, 8127.23, -4508.19, -12431.91, -18945.16, -12903.13, -1668.60, -32847.96, 0.00, 0.00, 0.00
139, 14102.16, 8011.25, -4652.38, -12576.16, -18984.95, -12999.19, -1804.10, -33001.50, 0.00, 0.00, 0.00
140, 14151.51, 8054.58, -4601.49, -12509.49, -19108.82, -12979.61, -1766.01, -32927.18, 0.00, 0.00, 0.00
141, 14273.71, 8167.66, -4461.10, -12360.13, -19087.32, -12876.48, -1633.85, -32774.05, 0.00, 0.00, 0.00
142, 14253.35, 8151.88, -4483.22, -12392.79, -18964.61, -12867.05, -1641.71, -32811.55, 0.00, 0.00, 0.00
143, 14137.05, 8044.48, -4621.25, -12533.87, -18955.42, -12950.71, -1759.42, -32961.13, 0.00, 0.00, 0.00
144, 14139.42, 8043.86, -4622.30, -12521.07, -19077.46, -12970.78, -1767.69, -32939.96, 0.00, 0.00, 0.00
145, 14262.80, 8155.73, -4473.90, -12369.25, -19089.60, -12876.06, -1632.44, -32773.33, 0.02, 0.97, 0.23
146, 14260.61, 8154.65, -4475.78, -12382.58, -18981.91, -12862.91, -1620.97, -32787.91, 0.00, 0.00, 0.00
147, 14144.09, 8047.61, -4614.12, -12530.68, -18947.73, -12946.93, -1741.38, -32943.36, 0.00, 0.00, 0.00
148, 14117.38, 8020.27, -4647.22, -12553.86, -19061.16, -12983.46, -1779.74, -32960.20, 0.00, 0.00, 0.00
149, 14245.15, 8136.88, -4505.55, -12397.73, -19100.82, -12892.24, -1650.30, -32796.38, 0.00, 0.00, 0.00
150, 14282.94, 8173.90, -4468.45, -12363.78, -18998.04, -12850.00, -1601.21, -32764.75, 0.00, 0.00, 0.00
151, 14169.53, 8068.55, -4604.28, -12506.05, -18940.20, -12928.74, -1715.85, -32919.54, 0.00, 0.00, 0.00
152, 14112.42, 8015.18, -4670.15, -12563.47, -19042.28, -12986.85, -1785.93, -32976.15, 0.00, 0.00, 0.00
153, 14221.03, 8114.17, -4543.71, -12420.44, -19111.32, -12908.62, -1674.64, -32821.05, 0.00, 0.00, 0.00
154, 14288.06, 8174.35, -4465.50, -12346.10, -19022.47, -12842.84, -1592.27, -32742.24, 0.00, 0.00, 0.00
155, 14180.91, 8078.32, -4586.94, -12480.01, -18947.06, -12909.90, -1689.68, -32888.63, 0.02, 0.96, 0.23
156, 14098.05, 7999.20, -4684.08, -12572.34, -19028.91, -12983.32, -1782.57, -32983.46, 0.00, 0.00, 0.00
157, 14186.65, 8081.09, -4580.61, -12458.28, -19119.50, -12927.51, -1698.33, -32853.53, 0.00, 0.00, 0.00
158, 14282.03, 8168.47, -4470.89, -12351.89, -19046.41, -12845.57, -1592.74, -32741.55, 0.00, 0.00, 0.00
159, 14202.92, 8094.44, -4561.90, -12459.76, -18933.31, -12896.44, -1666.48, -32864.42, 0.00, 0.00, 0.00
160, 14099.48, 7999.71, -4681.04, -12581.75, -19000.59, -12989.29, -1788.59, -32992.20, 0.00, 0.00, 0.00
161, 14164.97, 8057.74, -4613.51, -12498.40, -19117.94, -12958.80, -1735.93, -32897.41, 0.00, 0.00, 0.00
162, 14280.08, 8162.99, -4486.62, -12367.15, -19077.59, -12864.52, -1615.81, -32760.15, 0.00, 0.00, 0.00
163, 14229.08, 8116.68, -4549.97, -12443.39, -18970.84, -12889.80, -1660.42, -32843.00, 0.00, 0.00, 0.00
164, 14126.88, 8021.39, -4678.04, -12572.52, -18985.19, -12972.06, -1772.76, -32978.23, 0.00, 0.00, 0.00
165, 14159.25, 8051.19, -4645.12, -12521.02, -19099.41, -12958.69, -1746.41, -32914.44, 0.02, 0.97, 0.22
166, 14285.02, 8165.74, -4501.22, -12369.77, -19089.24, -12862.27, -1615.45, -32755.90, 0.00, 0.00, 0.00
167, 14264.97, 8147.68, -4526.79, -12409.51, -18977.01, -12867.72, -1628.26, -32802.46, 0.00, 0.00, 0.00
168, 14144.25, 8038.47, -4668.63, -12555.18, -18966.95, -12958.63, -1753.61, -32957.76, 0.00, 0.00, 0.00
169, 14144.94, 8033.48, -4673.30, -12548.92, -19087.92, -12981.09, -1769.72, -32946.00, 0.00, 0.00, 0.00
170, 14261.40, 8137.06, -4539.17, -12404.59, -19114.36, -12892.17, -1648.26, -32792.36, 0.00, 0.00, 0.00
171, 14269.46, 8145.89, -4526.81, -12403.25, -19006.29, -12872.50, -1626.89, -32795.62, 0.00, 0.00, 0.00
172, 14144.21, 8028.72, -4669.52, -12555.09, -18971.40, -12959.81, -1747.24, -32955.72, 0.00, 0.00, 0.00
173, 14110.83, 7996.87, -4709.89, -12585.24, -19081.55, -13001.32, -1790.13, -32978.81, 0.00, 0.00, 0.00
174, 14229.43, 8104.03, -4567.78, -12433.25, -19123.50, -12909.58, -1662.50, -32814.62, 0.00, 0.00, 0.00
175, 14278.70, 8149.33, -4505.24, -12383.98, -19015.25, -12855.72, -1599.62, -32767.52, 0.02, 0.96, 0.22
176, 14164.66, 8045.35, -4636.67, -12531.50, -18942.05, -12932.81, -1707.07, -32920.48, 0.00, 0.00, 0.00
177, 14110.57, 7998.59, -4704.48, -12596.79, -19023.37, -12994.72, -1776.25, -32978.84, 0.00, 0.00, 0.00
178, 14223.29, 8101.93, -4576.27, -12455.87, -19103.34, -12915.15, -1666.03, -32821.68, 0.00, 0.00, 0.00
179, 14293.96, 8168.98, -4495.74, -12379.31, -19025.83, -12848.43, -1587.33, -32745.17, 0.00, 0.00, 0.00
180, 14198.90, 8080.31, -4607.90, -12504.10, -18939.10, -12904.15, -1681.41, -32884.82, 0.00, 0.00, 0.00
181, 14112.91, 8001.25, -4709.33, -12600.37, -19013.11, -12982.18, -1780.20, -32985.96, 0.00, 0.00, 0.00
182, 14198.61, 8080.07, -4612.89, -12487.72, -19104.71, -12929.54, -1694.73, -32858.38, 0.00, 0.00, 0.00
183, 14301.94, 8173.79, -4496.08, -12373.50, -19041.14, -12840.72, -1584.47, -32732.61, 0.00, 0.00, 0.00
184, 14230.30, 8110.04, -4576.47, -12467.78, -18934.50, -12878.67, -1647.70, -32840.23, 0.00, 0.00, 0.00
185, 14127.38, 8010.82, -4701.73, -12591.81, -18982.93, -12965.93, -1765.16, -32972.60, 0.01, 0.96, 0.22
186, 14184.10, 8053.80, -4646.17, -12525.31, -19103.19, -12950.35, -1728.01, -32895.17, 0.00, 0.00, 0.00
187, 14308.56, 8170.21, -4515.92, -12394.09, -19074.46, -12861.89, -1610.44, -32756.86, 0.00, 0.00, 0.00
188, 14270.11, 8152.26, -4564.38, -12447.95, -18956.25, -12866.98, -1637.53, -32819.38, 0.00, 0.00, 0.00
189, 14121.23, 8021.21, -4709.00, -12592.23, -18971.91, -12951.32, -1758.77, -32965.07, 0.00, 0.00, 0.00
190, 14128.07, 8022.96, -4688.77, -12559.36, -19091.21, -12950.40, -1744.98, -32918.69, 0.00, 0.00, 0.00
191, 14253.57, 8136.26, -4548.29, -12413.13, -19087.47, -12860.39, -1613.82, -32759.86, 0.00, 0.00, 0.00
192, 14245.57, 8130.31, -4560.29, -12439.73, -18970.57, -12854.29, -1612.05, -32788.87, 0.00, 0.00, 0.00
193, 14125.27, 8017.50, -4704.62, -12591.30, -18953.92, -12943.60, -1737.94, -32948.95, 0.00, 0.00, 0.00
194, 14117.25, 8005.48, -4722.32, -12596.37, -19073.14, -12971.86, -1762.57, -32949.96, 0.02, 0.96, 0.22
195, 14245.55, 8120.25, -4580.79, -12444.94, -19098.69, -12882.94, -1633.69, -32785.56, 0.00, 0.00, 0.00
196, 14269.55, 8143.37, -4554.99, -12429.56, -18987.58, -12850.17, -1601.14, -32773.02, 0.00, 0.00, 0.00
197, 14140.56, 8026.09, -4706.14, -12586.38, -18951.02, -12939.67, -1728.21, -32941.13, 0.00, 0.00, 0.00
198, 14104.93, 7991.17, -4750.75, -12615.91, -19054.35, -12977.13, -1776.96, -32969.85, 0.00, 0.00, 0.00
199, 14220.31, 8093.48, -4612.82, -12468.88, -19107.32, -12889.89, -1659.59, -32812.61, 0.00, 0.00, 0.00
200, 14273.82, 8146.52, -4546.19, -12410.11, -19007.12, -12835.69, -1595.07, -32761.26, 0.00, 0.00, 0.00
201, 14164.43, 8045.58, -4674.78, -12552.94, -18932.42, -12906.39, -1703.76, -32912.99, 0.00, 0.00, 0.00
202, 14100.51, 7986.30, -4751.13, -12627.86, -19018.72, -12976.37, -1788.14, -32991.82, 0.00, 0.00, 0.00
203, 14205.32, 8083.40, -4631.53, -12498.02, -19112.73, -12906.50, -1689.79, -32849.00, 0.00, 0.00, 0.00
204, 14282.76, 8155.82, -4543.91, -12415.52, -19039.71, -12834.08, -1599.80, -32758.74, 0.02, 0.97, 0.22
205, 14191.43, 8073.99, -4649.39, -12534.61, -18946.50, -12886.99, -1682.17, -32886.16, 0.00, 0.00, 0.00
206, 14094.61, 7984.89, -4765.03, -12644.09, -19018.52, -12969.91, -1785.95, -32997.01, 0.00, 0.00, 0.00
207, 14179.25, 8062.16, -4672.70, -12539.73, -19113.04, -12924.00, -1708.90, -32880.98, 0.00, 0.00, 0.00
208, 14287.35, 8157.67, -4550.46, -12415.54, -19054.39, -12832.87, -1594.28, -32753.33, 0.00, 0.00, 0.00
209, 14227.33, 8101.64, -4622.81, -12499.79, -18946.12, -12858.15, -1648.60, -32847.50, 0.00, 0.00, 0.00
210, 14114.17, 7995.15, -4756.21, -12631.53, -18988.72, -12947.18, -1770.41, -32986.12, 0.00, 0.00, 0.00
211, 14162.18, 8037.71, -4705.87, -12563.96, -19103.12, -12928.34, -1731.28, -32906.50, 0.00, 0.00, 0.00
212, 14272.10, 8137.26, -4579.13, -12433.43, -19079.58, -12836.83, -1613.24, -32765.20, 0.00, 0.00, 0.00
213, 14240.27, 8111.90, -4622.05, -12485.82, -18964.27, -12847.49, -1640.37, -32822.80, 0.00, 0.00, 0.00
214, 14124.67, 8005.93, -4763.56, -12627.86, -18970.69, -12933.64, -1760.71, -32969.83, 0.02, 0.97, 0.22
215, 14146.78, 8023.40, -4742.64, -12599.07, -19091.43, -12941.37, -1755.75, -32931.20, 0.00, 0.00, 0.00
216, 14270.34, 8137.06, -4599.12, -12451.64, -19095.25, -12848.39, -1627.48, -32771.88, 0.00, 0.00, 0.00
217, 14263.23, 8132.26, -4606.00, -12470.73, -18984.77, -12841.03, -1624.39, -32795.17, 0.00, 0.00, 0.00
218, 14142.08, 8015.58, -4747.31, -12621.81, -18959.84, -12928.54, -1744.20, -32952.95, 0.00, 0.00, 0.00
219, 14132.65, 8005.59, -4762.46, -12621.96, -19062.10, -12950.58, -1760.27, -32947.72, 0.00, 0.00, 0.00
220, 14254.04, 8116.16, -4619.14, -12469.84, -19083.92, -12852.59, -1629.82, -32781.43, 0.00, 0.00, 0.00
221, 14272.06, 8137.33, -4595.90, -12454.70, -18999.83, -12827.84, -1606.13, -32776.30, 0.00, 0.00, 0.00
222, 14156.16, 8034.02, -4732.11, -12596.75, -18953.16, -12906.75, -1720.44, -32926.84, 0.00, 0.00, 0.00
223, 14122.30, 8001.97, -4776.30, -12631.69, -19050.14, -12949.35, -1766.84, -32953.20, 0.00, 0.00, 0.00
224, 14246.46, 8117.01, -4635.35, -12477.32, -19101.00, -12863.92, -1645.24, -32794.84, 0.02, 0.97, 0.22
225, 14295.62, 8161.87, -4579.43, -12429.11, -19015.32, -12810.14, -1587.24, -32743.67, 0.00, 0.00, 0.00
226, 14187.79, 8063.03, -4706.34, -12573.10, -18947.84, -12885.02, -1694.20, -32896.94, 0.00, 0.00, 0.00
227, 14112.73, 7992.45, -4794.02, -12657.14, -19039.46, -12959.74, -1783.78, -32984.34, 0.00, 0.00, 0.00
228, 14213.47, 8077.88, -4676.92, -12532.64, -19118.41, -12894.09, -1685.55, -32844.77, 0.00, 0.00, 0.00
229, 14300.56, 8157.85, -4575.45, -12436.00, -19043.17, -12819.75, -1588.96, -32743.92, 0.00, 0.00, 0.00
230, 14220.29, 8086.32, -4666.78, -12540.58, -18942.88, -12864.17, -1657.69, -32858.56, 0.00, 0.00, 0.00
231, 14112.80, 7989.41, -4794.96, -12661.79, -19011.32, -12948.43, -1770.95, -32979.13, 0.00, 0.00, 0.00
232, 14184.06, 8053.98, -4716.71, -12565.01, -19120.11, -12910.57, -1708.14, -32875.17, 0.00, 0.00, 0.00
233, 14295.97, 8158.59, -4590.74, -12433.13, -19063.38, -12812.67, -1583.78, -32738.02, 0.00, 0.00, 0.00
234, 14230.62, 8102.69, -4670.02, -12523.26, -18953.45, -12843.45, -1640.06, -32835.16, 0.02, 0.96, 0.22
235, 14117.41, 7996.31, -4806.12, -12663.02, -18988.46, -12939.80, -1766.37, -32980.54, 0.00, 0.00, 0.00
236, 14153.30, 8026.98, -4765.46, -12610.61, -19125.05, -12932.92, -1742.83, -32919.18, 0.00, 0.00, 0.00
237, 14274.23, 8134.47, -4627.66, -12470.28, -19106.58, -12837.03, -1612.14, -32765.22, 0.00, 0.00, 0.00
238, 14241.39, 8104.85, -4664.14, -12521.49, -18995.67, -12850.58, -1634.74, -32825.52, 0.00, 0.00, 0.00
239, 14129.19, 8001.05, -4795.61, -12659.22, -18990.24, -12939.33, -1752.80, -32973.61, 0.00, 0.00, 0.00
240, 14140.88, 8009.28, -4782.76, -12632.22, -19086.20, -12939.33, -1745.16, -32926.04, 0.00, 0.00, 0.00
241, 14265.80, 8123.23, -4640.13, -12480.30, -19082.31, -12843.47, -1610.49, -32763.45, 0.00, 0.00, 0.00
242, 14261.93, 8119.20, -4647.69, -12499.25, -18977.90, -12833.83, -1609.46, -32789.25, 0.00, 0.00, 0.00
243, 14144.61, 8012.00, -4789.35, -12648.07, -18953.85, -12921.77, -1735.08, -32950.02, 0.00, 0.00, 0.00
244, 14119.95, 7990.50, -4821.07, -12666.11, -19072.72, -12954.04, -1772.16, -32964.64, 0.03, 0.97, 0.21
245, 14244.61, 8103.31, -4676.32, -12513.47, -19112.08, -12867.09, -1647.08, -32800.89, 0.00, 0.00, 0.00
246, 14275.75, 8133.82, -4637.81, -12487.20, -19011.97, -12829.95, -1603.87, -32775.59, 0.00, 0.00, 0.00
247, 14165.80, 8031.58, -4762.11, -12626.95, -18952.20, -12903.30, -1710.82, -32924.05, 0.00, 0.00, 0.00
248, 14115.64, 7982.52, -4819.53, -12679.41, -19050.41, -12952.21, -1772.98, -32972.20, 0.00, 0.00, 0.00
249, 14229.32, 8085.12, -4690.20, -12537.12, -19112.57, -12873.00, -1661.38, -32819.49, 0.00, 0.00, 0.00
250, 14285.20, 8135.27, -4624.17, -12474.37, -19019.10, -12818.12, -1594.06, -32759.70, 0.00, 0.00, 0.00
251, 14183.03, 8045.26, -4736.85, -12600.88, -18947.77, -12888.04, -1691.31, -32899.38, 0.00, 0.00, 0.00
252, 14114.21, 7983.04, -4819.46, -12679.21, -19031.55, -12954.58, -1773.25, -32977.00, 0.00, 0.00, 0.00
253, 14209.43, 8071.06, -4712.75, -12554.97, -19112.33, -12888.04, -1680.09, -32839.45, 0.00, 0.00, 0.00
254, 14283.73, 8140.13, -4623.91, -12467.11, -19052.71, -12817.52, -1590.33, -32750.33, 0.03, 0.96, 0.22
255, 14206.10, 8069.07, -4716.44, -12576.07, -18958.19, -12864.81, -1662.46, -32863.84, 0.00, 0.00, 0.00
0, 14114.14, 7983.62, -4825.99, -12686.72, -19003.23, -12941.64, -1761.12, -32975.46, 0.00, 0.00, 0.00
1, 14169.28, 8029.91, -4763.89, -12609.58, -19115.44, -12914.55, -1714.04, -32890.57, 0.00, 0.00, 0.00
2, 14283.52, 8134.31, -4635.10, -12481.91, -19072.32, -12823.89, -1594.04, -32753.57, 0.00, 0.00, 0.00
3, 14239.92, 8097.43, -4689.44, -12547.58, -18960.47, -12843.31, -1630.83, -32829.77, 0.00, 0.00, 0.00
4, 14123.35, 7990.50, -4827.13, -12684.53, -18984.99, -12932.54, -1751.06, -32971.68, 0.00, 0.00, 0.00
5, 14152.41, 8013.99, -4796.46, -12640.83, -19108.44, -12929.21, -1731.34, -32915.80, 0.00, 0.00, 0.00
6, 14275.99, 8126.40, -4656.70, -12494.96, -19094.40, -12831.96, -1603.40, -32758.43, 0.00, 0.00, 0.00
7, 14258.33, 8111.69, -4681.73, -12526.41, -18976.45, -12827.78, -1611.67, -32796.67, 0.00, 0.00, 0.00
8, 14128.29, 7993.39, -4828.74, -12677.10, -18964.96, -12923.24, -1743.08, -32961.49, 0.03, 0.97, 0.22
9, 14149.35, 8014.35, -4811.24, -12643.87, -19080.99, -12926.97, -1739.88, -32926.73, 0.00, 0.00, 0.00
10, 14274.52, 8126.27, -4665.41, -12492.23, -19102.96, -12832.76, -1612.16, -32764.95, 0.00, 0.00, 0.00
11, 14283.90, 8135.39, -4656.40, -12499.99, -18995.27, -12815.77, -1597.52, -32773.67, 0.00, 0.00, 0.00
12, 14172.26, 8033.15, -4787.65, -12646.97, -18956.02, -12903.80, -1714.04, -32929.77, 0.00, 0.00, 0.00
13, 14145.26, 8005.55, -4825.67, -12677.89, -19063.89, -12939.96, -1755.44, -32949.02, 0.00, 0.00, 0.00
14, 14249.15, 8097.79, -4705.18, -12550.82, -19122.74, -12869.11, -1651.21, -32807.13, 0.00, 0.00, 0.00
15, 14287.21, 8135.95, -4655.56, -12511.88, -19022.21, -12823.51, -1597.68, -32767.01, 0.00, 0.00, 0.00
16, 14182.76, 8041.84, -4778.56, -12649.90, -18952.40, -12892.73, -1697.28, -32913.08, 0.00, 0.00, 0.00
17, 14120.31, 7980.09, -4853.23, -12719.35, -19051.67, -12956.30, -1771.20, -32978.30, 0.00, 0.00, 0.00
18, 14223.78, 8074.48, -4732.74, -12584.10, -19120.69, -12879.10, -1665.07, -32828.36, 0.02, 0.96, 0.22
19, 14290.74, 8135.65, -4655.22, -12510.07, -19040.29, -12815.66, -1587.98, -32755.61, 0.00, 0.00, 0.00
20, 14196.33, 8048.59, -4766.02, -12633.81, -18954.99, -12875.63, -1680.40, -32890.10, 0.00, 0.00, 0.00
21, 14111.84, 7969.60, -4867.74, -12729.56, -19031.66, -12953.89, -1777.08, -32987.20, 0.00, 0.00, 0.00
22, 14198.97, 8047.52, -4771.54, -12615.70, -19116.46, -12897.78, -1694.37, -32856.86, 0.00, 0.00, 0.00
23, 14296.02, 8136.03, -4660.67, -12508.48, -19052.76, -12815.95, -1590.08, -32744.75, 0.00, 0.00, 0.00
24, 14217.90, 8065.38, -4747.67, -12611.43, -18966.28, -12861.06, -1656.11, -32855.54, 0.00, 0.00, 0.00
25, 14106.50, 7962.05, -4883.54, -12742.01, -19026.07, -12955.32, -1778.13, -32990.64, 0.00, 0.00, 0.00
26, 14166.16, 8014.69, -4821.52, -12661.28, -19137.21, -12922.97, -1727.03, -32898.14, 0.00, 0.00, 0.00
27, 14282.27, 8123.81, -4688.64, -12526.25, -19101.40, -12828.92, -1605.64, -32760.26, 0.03, 0.96, 0.22
28, 14237.75, 8085.03, -4740.47, -12592.84, -18991.56, -12849.50, -1641.33, -32835.45, 0.00, 0.00, 0.00
29, 14126.53, 7983.62, -4867.74, -12724.65, -19007.25, -12936.16, -1760.36, -32976.13, 0.00, 0.00, 0.00
30, 14152.52, 8006.17, -4831.96, -12681.46, -19122.36, -12930.57, -1744.87, -32924.95, 0.00, 0.00, 0.00
31, 14276.86, 8119.20, -4681.62, -12533.52, -19107.23, -12835.65, -1612.75, -32768.82, 0.00, 0.00, 0.00
32, 14256.10, 8103.47, -4697.73, -12568.03, -18994.51, -12837.05, -1627.70, -32812.16, 0.00, 0.00, 0.00
33, 14133.23, 7990.10, -4831.62, -12713.78, -18997.28, -12927.47, -1753.27, -32969.40, 0.00, 0.00, 0.00
34, 14127.15, 7981.49, -4839.13, -12709.85, -19118.83, -12946.38, -1769.23, -32957.58, 0.00, 0.00, 0.00
35, 14261.96, 8104.97, -4687.21, -12549.23, -19132.51, -12847.31, -1631.10, -32784.60, 0.00, 0.00, 0.00
36, 14286.59, 8130.56, -4663.60, -12536.04, -19013.22, -12812.71, -1596.72, -32770.59, 0.00, 0.00, 0.00
37, 14153.97, 8008.32, -4815.50, -12701.45, -18985.48, -12910.46, -1730.63, -32946.47, 0.03, 0.96, 0.22
38, 14119.24, 7977.78, -4857.19, -12736.27, -19095.63, -12960.48, -1779.80, -32976.69, 0.00, 0.00, 0.00
39, 14236.34, 8085.25, -4722.68, -12591.50, -19146.41, -12878.67, -1657.99, -32815.46, 0.00, 0.00, 0.00
40, 14292.22, 8138.78, -4656.85, -12539.06, -19040.85, -12819.93, -1589.52, -32759.70, 0.00, 0.00, 0.00
41, 14173.38, 8030.89, -4789.22, -12681.75, -18974.82, -12892.49, -1699.36, -32914.75, 0.00, 0.00, 0.00
42, 14111.50, 7969.31, -4867.58, -12752.97, -19069.19, -12958.00, -1777.10, -32984.60, 0.00, 0.00, 0.00
43, 14215.26, 8060.22, -4749.03, -12625.38, -19143.93, -12888.66, -1675.40, -32842.02, 0.00, 0.00, 0.00
44, 14289.04, 8130.63, -4662.95, -12545.41, -19059.64, -12823.22, -1587.69, -32756.28, 0.00, 0.00, 0.00
45, 14199.97, 8047.70, -4769.66, -12667.96, -18967.94, -12880.91, -1676.29, -32887.15, 0.00, 0.00, 0.00
46, 14117.27, 7969.60, -4872.05, -12769.10, -19050.48, -12956.77, -1776.25, -32990.64, 0.00, 0.00, 0.00
47, 14188.17, 8034.76, -4789.69, -12669.46, -19155.53, -12913.72, -1710.49, -32880.22, 0.02, 0.97, 0.22
48, 14287.55, 8128.95, -4674.82, -12553.01, -19100.93, -12831.29, -1602.87, -32761.93, 0.00, 0.00, 0.00
49, 14220.80, 8067.71, -4754.75, -12645.52, -18999.29, -12870.71, -1663.15, -32867.68, 0.00, 0.00, 0.00
50, 14109.72, 7962.00, -4886.00, -12775.18, -19044.60, -12965.53, -1782.46, -33002.35, 0.00, 0.00, 0.00
51, 14164.08, 8011.96, -4825.76, -12700.84, -19153.66, -12942.33, -1735.30, -32913.14, 0.00, 0.00, 0.00
52, 14285.51, 8122.85, -4685.98, -12561.90, -19120.78, -12847.40, -1608.25, -32766.67, 0.00, 0.00, 0.00
53, 14258.80, 8098.75, -4718.81, -12611.84, -19000.97, -12852.70, -1630.00, -32824.07, 0.00, 0.00, 0.00
54, 14133.16, 7980.44, -4866.40, -12764.77, -19016.60, -12950.96, -1760.54, -32984.91, 0.00, 0.00, 0.00
55, 14153.46, 7997.41, -4844.83, -12731.20, -19133.07, -12951.32, -1751.51, -32936.90, 0.00, 0.00, 0.00
56, 14278.41, 8115.27, -4695.79, -12577.84, -19120.58, -12844.63, -1615.76, -32771.84, 0.00, 0.00, 0.00
57, 14260.41, 8101.34, -4711.28, -12610.23, -19007.52, -12846.15, -1620.01, -32808.52, 0.02, 0.97, 0.22
58, 14138.10, 7990.82, -4849.37, -12759.92, -18999.56, -12935.49, -1743.10, -32962.36, 0.00, 0.00, 0.00
59, 14123.98, 7975.57, -4865.73, -12766.94, -19115.23, -12959.76, -1769.86, -32961.07, 0.00, 0.00, 0.00
60, 14236.41, 8077.32, -4733.99, -12625.92, -19150.68, -12877.02, -1652.06, -32811.11, 0.00, 0.00, 0.00
61, 14261.91, 8105.90, -4703.14, -12608.57, -19042.50, -12844.52, -1614.89, -32797.79, 0.00, 0.00, 0.00
62, 14140.52, 7996.09, -4843.44, -12761.66, -18994.91, -12923.91, -1736.15, -32956.82, 0.00, 0.00, 0.00
63, 14091.75, 7951.05, -4904.89, -12814.03, -19107.52, -12977.15, -1799.78, -33003.33, 0.00, 0.00, 0.00
64, 14213.76, 8066.72, -4765.77, -12662.24, -19159.76, -12885.24, -1676.76, -32835.98, 0.00, 0.00, 0.00
65, 14272.84, 8125.10, -4706.25, -12610.29, -19067.40, -12834.95, -1617.17, -32789.00, 0.00, 0.00, 0.00
66, 14170.07, 8033.91, -4826.61, -12745.90, -18991.03, -12908.06, -1718.36, -32939.34, 0.00, 0.00, 0.00
67, 14098.16, 7968.51, -4898.41, -12817.03, -19066.69, -12967.41, -1790.67, -33003.09, 0.03, 0.97, 0.21
68, 14187.86, 8050.41, -4780.35, -12691.12, -19140.67, -12894.97, -1688.83, -32854.87, 0.00, 0.00, 0.00
69, 14269.26, 8124.48, -4683.41, -12607.14, -19065.95, -12826.95, -1599.45, -32767.34, 0.00, 0.00, 0.00
70, 14190.70, 8051.61, -4785.44, -12731.67, -18975.54, -12883.63, -1684.85, -32896.87, 0.00, 0.00, 0.00
71, 14110.90, 7978.37, -4895.77, -12846.08, -19041.70, -12968.28, -1792.74, -33010.73, 0.00, 0.00, 0.00
72, 14178.81, 8044.73, -4812.87, -12750.60, -19141.88, -12924.72, -1728.15, -32903.58, 0.00, 0.00, 0.00
73, 14277.13, 8140.04, -4691.50, -12628.24, -19089.84, -12833.46, -1614.73, -32774.59, 0.00, 0.00, 0.00
74, 14217.09, 8092.14, -4764.23, -12711.71, -18986.11, -12862.98, -1670.46, -32874.12, 0.00, 0.00, 0.00
75, 14097.83, 7985.56, -4900.04, -12848.25, -19028.49, -12960.26, -1795.60, -33018.89, 0.00, 0.00, 0.00
76, 14144.41, 8030.04, -4846.91, -12781.24, -19135.62, -12935.13, -1753.81, -32931.85, 0.00, 0.00, 0.00
77, 14270.00, 8148.80, -4703.72, -12633.41, -19106.03, -12829.81, -1623.38, -32775.01, 0.03, 0.96, 0.22
78, 14247.18, 8133.15, -4733.79, -12677.13, -18989.06, -12836.14, -1643.03, -32830.84, 0.00, 0.00, 0.00
79, 14125.05, 8022.64, -4878.36, -12828.31, -18991.18, -12933.55, -1773.05, -32991.04, 0.00, 0.00, 0.00
80, 14138.57, 8035.12, -4862.64, -12803.44, -19108.75, -12942.75, -1775.44, -32959.08, 0.00, 0.00, 0.00
81, 14270.00, 8155.73, -4708.77, -12645.88, -19122.90, -12837.08, -1638.96, -32789.09, 0.00, 0.00, 0.00
82, 14272.68, 8163.55, -4705.00, -12655.13, -19012.53, -12817.96, -1628.08, -32806.23, 0.00, 0.00, 0.00
83, 14147.07, 8050.61, -4852.18, -12807.48, -18990.38, -12903.66, -1753.29, -32964.62, 0.00, 0.00, 0.00
84, 14121.74, 8026.91, -4882.38, -12823.15, -19105.71, -12932.18, -1786.19, -32970.21, 0.00, 0.00, 0.00
85, 14245.77, 8139.45, -4742.53, -12673.26, -19142.57, -12840.81, -1662.88, -32808.14, 0.00, 0.00, 0.00
86, 14281.00, 8172.40, -4700.06, -12641.92, -19034.88, -12802.61, -1616.97, -32784.40, 0.00, 0.00, 0.00
87, 14162.91, 8065.60, -4836.27, -12790.05, -18979.89, -12879.92, -1730.34, -32941.31, 0.03, 0.96, 0.22
88, 14120.40, 8025.73, -4891.12, -12836.03, -19075.56, -12925.63, -1783.49, -32978.48, 0.00, 0.00, 0.00
89, 14233.55, 8126.56, -4762.60, -12695.25, -19135.69, -12845.93, -1667.28, -32821.50, 0.00, 0.00, 0.00
90, 14297.16, 8184.96, -4689.08, -12630.01, -19042.72, -12788.53, -1593.77, -32760.04, 0.00, 0.00, 0.00
91, 14197.42, 8093.99, -4803.32, -12758.02, -18961.86, -12854.55, -1689.08, -32900.45, 0.00, 0.00, 0.00
92, 14108.40, 8009.08, -4908.78, -12856.30, -19044.49, -12931.40, -1786.22, -32994.28, 0.00, 0.00, 0.00
93, 14200.76, 8093.77, -4802.43, -12737.05, -19136.29, -12878.11, -1703.25, -32865.87, 0.00, 0.00, 0.00
94, 14290.25, 8178.55, -4695.92, -12634.05, -19076.30, -12802.48, -1605.12, -32759.70, 0.00, 0.00, 0.00
95, 14205.74, 8101.32, -4796.55, -12747.76, -18985.37, -12856.99, -1684.16, -32886.34, 0.00, 0.00, 0.00
96, 14116.62, 8019.11, -4907.55, -12858.09, -19040.91, -12937.79, -1788.68, -33000.54, 0.00, 0.00, 0.00
97, 14189.94, 8086.91, -4823.55, -12763.02, -19137.23, -12895.70, -1719.34, -32889.74, 0.02, 0.97, 0.22
98, 14296.35, 8186.73, -4695.79, -12639.82, -19090.51, -12802.92, -1598.75, -32755.45, 0.00, 0.00, 0.00
99, 14244.86, 8139.95, -4759.00, -12720.53, -18982.20, -12826.06, -1643.50, -32840.90, 0.00, 0.00, 0.00
100, 14127.06, 8032.84, -4898.32, -12863.67, -19013.38, -12918.39, -1765.92, -32981.94, 0.00, 0.00, 0.00
101, 14157.59, 8059.30, -4866.85, -12815.08, -19130.88, -12906.81, -1741.02, -32916.52, 0.00, 0.00, 0.00
102, 14266.20, 8155.95, -4740.40, -12681.53, -19121.83, -12814.19, -1620.70, -32773.38, 0.00, 0.00, 0.00
103, 14235.56, 8130.25, -4776.05, -12727.42, -19015.66, -12818.88, -1640.13, -32825.86, 0.00, 0.00, 0.00
104, 14125.18, 8027.32, -4909.87, -12866.04, -19011.19, -12904.87, -1760.00, -32974.19, 0.00, 0.00, 0.00
105, 14133.72, 8034.65, -4905.07, -12847.89, -19129.79, -12914.21, -1765.12, -32949.53, 0.00, 0.00, 0.00
106, 14255.03, 8147.17, -4761.15, -12695.39, -19149.43, -12820.36, -1636.80, -32788.20, 0.00, 0.00, 0.00
107, 14269.87, 8160.49, -4743.80, -12691.63, -19051.20, -12795.08, -1612.37, -32787.80, 0.02, 0.96, 0.22
108, 14143.71, 8044.10, -4892.17, -12849.37, -19005.29, -12888.51, -1739.46, -32958.50, 0.00, 0.00, 0.00
109, 14115.86, 8015.00, -4928.25, -12874.74, -19107.16, -12927.82, -1780.12, -32972.80, 0.00, 0.00, 0.00
110, 14235.58, 8121.42, -4789.17, -12728.40, -19175.34, -12842.40, -1660.22, -32813.45, 0.00, 0.00, 0.00
111, 14276.75, 8160.62, -4744.54, -12691.81, -19116.71, -12796.87, -1611.27, -32776.51, 0.00, 0.00, 0.00
112, 14156.30, 8050.72, -4884.21, -12842.24, -19081.30, -12874.31, -1726.65, -32936.12, 0.00, 0.00, 0.00
113, 14093.94, 7991.37, -4955.18, -12908.49, -19169.28, -12939.56, -1803.23, -32999.87, 0.00, 0.00, 0.00
114, 14209.99, 8096.00, -4822.37, -12763.78, -19237.36, -12859.34, -1689.30, -32842.58, 0.00, 0.00, 0.00
115, 14288.17, 8167.73, -4736.51, -12685.89, -19149.28, -12789.82, -1604.30, -32766.14, 0.00, 0.00, 0.00
116, 14177.00, 8068.06, -4862.06, -12823.98, -19074.24, -12862.58, -1710.18, -32917.95, 0.02, 0.97, 0.21
117, 14102.86, 7999.47, -4952.63, -12911.75, -19145.63, -12941.19, -1797.28, -33008.30, 0.00, 0.00, 0.00
118, 14193.42, 8078.61, -4852.47, -12799.55, -19232.47, -12887.32, -1713.78, -32884.49, 0.00, 0.00, 0.00
119, 14279.88, 8159.21, -4750.93, -12700.71, -19173.06, -12810.52, -1617.84, -32780.64, 0.00, 0.00, 0.00
120, 14208.09, 8094.30, -4835.93, -12797.98, -19071.76, -12848.81, -1682.93, -32887.57, 0.00, 0.00, 0.00
121, 14097.69, 7991.91, -4966.65, -12925.68, -19129.25, -12937.05, -1801.44, -33017.13, 0.00, 0.00, 0.00
122, 14152.54, 8039.63, -4906.16, -12851.72, -19241.21, -12910.79, -1754.68, -32928.19, 0.00, 0.00, 0.00
123, 14267.03, 8140.48, -4775.83, -12726.10, -19200.84, -12817.96, -1633.60, -32791.24, 0.00, 0.00, 0.00
124, 14222.88, 8103.54, -4830.79, -12799.97, -19083.40, -12839.04, -1669.79, -32865.56, 0.00, 0.00, 0.00
125, 14115.93, 8006.55, -4958.06, -12929.95, -19089.10, -12924.81, -1787.51, -33004.96, 0.00, 0.00, 0.00
126, 14150.02, 8034.24, -4918.97, -12881.58, -19215.28, -12910.64, -1767.31, -32948.48, 0.02, 0.97, 0.21
127, 14270.25, 8143.88, -4780.30, -12740.29, -19212.31, -12816.96, -1642.58, -32799.30, 0.00, 0.00, 0.00
128, 14247.85, 8123.92, -4807.01, -12779.36, -19108.08, -12820.65, -1655.21, -32847.59, 0.00, 0.00, 0.00
129, 14131.87, 8021.62, -4946.35, -12919.75, -19100.46, -12904.69, -1773.70, -32994.62, 0.00, 0.00, 0.00
130, 14133.63, 8023.52, -4951.38, -12906.63, -19213.16, -12916.71, -1784.79, -32976.18, 0.00, 0.00, 0.00
131, 14263.94, 8143.28, -4802.03, -12745.84, -19226.01, -12815.17, -1651.15, -32804.58, 0.00, 0.00, 0.00
132, 14281.22, 8159.35, -4782.80, -12736.29, -19114.07, -12782.87, -1622.36, -32796.80, 0.00, 0.00, 0.00
133, 14154.38, 8040.84, -4930.30, -12893.56, -19081.30, -12874.38, -1746.27, -32962.12, 0.00, 0.00, 0.00
134, 14120.94, 8006.93, -4969.33, -12926.21, -19186.78, -12915.26, -1789.50, -32986.10, 0.00, 0.00, 0.00
135, 14230.68, 8104.27, -4840.61, -12790.27, -19238.01, -12836.29, -1676.36, -32837.86, 0.00, 0.00, 0.00
136, 14277.65, 8148.82, -4786.49, -12747.24, -19131.46, -12785.60, -1615.72, -32791.24, 0.02, 0.98, 0.21
137, 14166.85, 8047.70, -4909.58, -12886.54, -19060.47, -12855.40, -1717.55, -32933.24, 0.00, 0.00, 0.00
138, 14108.91, 7993.25, -4977.78, -12950.58, -19160.72, -12916.98, -1787.40, -32996.88, 0.00, 0.00, 0.00
139, 14214.79, 8090.10, -4859.54, -12818.41, -19230.77, -12844.47, -1685.99, -32854.31, 0.00, 0.00, 0.00
140, 14280.31, 8146.43, -4786.63, -12753.28, -19161.10, -12788.75, -1615.38, -32785.63, 0.00, 0.00, 0.00
141, 14195.10, 8071.01, -4895.30, -12875.10, -19078.02, -12850.60, -1704.07, -32919.74, 0.00, 0.00, 0.00
142, 14103.75, 7995.62, -4995.77, -12968.88, -19144.80, -12923.11, -1797.12, -33018.18, 0.00, 0.00, 0.00
143, 14172.79, 8059.57, -4891.32, -12848.48, -19228.89, -12864.93, -1708.72, -32885.34, 0.00, 0.00, 0.00
144, 14266.60, 8147.23, -4775.70, -12737.19, -19166.35, -12774.71, -1599.29, -32762.20, 0.00, 0.00, 0.00
145, 14192.64, 8079.73, -4866.11, -12845.55, -19074.84, -12827.44, -1670.84, -32880.02, 0.00, 0.00, 0.00
146, 14086.43, 7978.97, -4990.00, -12974.14, -19121.56, -12917.70, -1784.05, -33009.23, 0.03, 0.97, 0.22
147, 14140.25, 8027.38, -4931.00, -12902.32, -19230.48, -12893.00, -1738.41, -32925.30, 0.00, 0.00, 0.00
148, 14255.20, 8132.84, -4800.80, -12767.94, -19196.77, -12798.36, -1614.15, -32783.26, 0.00, 0.00, 0.00
149, 14229.99, 8108.72, -4838.82, -12818.03, -19082.55, -12807.28, -1637.42, -32841.21, 0.00, 0.00, 0.00
150, 14115.19, 8005.19, -4978.14, -12956.84, -19093.73, -12895.37, -1757.94, -32991.46, 0.00, 0.00, 0.00
151, 14131.87, 8020.48, -4959.09, -12920.45, -19204.60, -12894.16, -1752.47, -32951.30, 0.00, 0.00, 0.00
152, 14258.69, 8138.02, -4806.90, -12763.23, -19205.80, -12795.12, -1621.78, -32791.64, 0.00, 0.00, 0.00
153, 14248.81, 8130.47, -4818.57, -12784.88, -19100.01, -12788.24, -1623.34, -32824.18, 0.00, 0.00, 0.00
154, 14124.98, 8013.79, -4961.17, -12933.64, -19086.29, -12874.87, -1745.87, -32974.28, 0.00, 0.00, 0.00
155, 14121.52, 8009.99, -4966.58, -12928.58, -19193.31, -12892.49, -1759.93, -32958.41, 0.00, 0.00, 0.00
156, 14245.41, 8121.06, -4824.33, -12780.82, -19213.25, -12799.93, -1631.21, -32800.51, 0.02, 0.97, 0.22
157, 14260.05, 8134.47, -4808.17, -12778.29, -19112.10, -12780.39, -1605.91, -32794.95, 0.00, 0.00, 0.00
158, 14139.53, 8022.17, -4950.51, -12933.52, -19072.21, -12868.73, -1729.11, -32957.00, 0.00, 0.00, 0.00
159, 14103.97, 7988.69, -4994.97, -12967.23, -19175.16, -12913.29, -1777.05, -32985.12, 0.00, 0.00, 0.00
160, 14224.18, 8099.38, -4855.85, -12820.71, -19222.25, -12823.49, -1652.55, -32819.73, 0.00, 0.00, 0.00
161, 14279.34, 8149.74, -4791.97, -12765.28, -19125.36, -12769.37, -1587.78, -32765.67, 0.00, 0.00, 0.00
162, 14168.97, 8048.04, -4918.88, -12904.13, -19053.43, -12840.32, -1691.00, -32913.43, 0.00, 0.00, 0.00
163, 14095.48, 7977.23, -5007.15, -12989.13, -19140.45, -12916.94, -1782.22, -32997.36, 0.00, 0.00, 0.00
164, 14200.76, 8073.43, -4887.37, -12859.49, -19225.23, -12844.81, -1681.57, -32853.02, 0.00, 0.00, 0.00
165, 14284.24, 8150.09, -4792.64, -12769.15, -19152.03, -12769.24, -1588.81, -32757.73, 0.00, 0.00, 0.00
166, 14202.28, 8075.24, -4886.56, -12878.92, -19053.43, -12812.80, -1659.93, -32874.23, 0.02, 0.97, 0.22
167, 14102.90, 7980.27, -5005.96, -12997.99, -19125.40, -12901.29, -1769.77, -32993.54, 0.00, 0.00, 0.00
168, 14177.89, 8046.61, -4920.16, -12900.20, -19222.99, -12865.75, -1700.54, -32885.70, 0.00, 0.00, 0.00
169, 14269.53, 8129.89, -4809.02, -12791.50, -19175.76, -12793.94, -1595.40, -32771.37, 0.00, 0.00, 0.00
170, 14218.93, 8086.50, -4871.43, -12866.96, -19066.08, -12821.72, -1640.17, -32854.87, 0.00, 0.00, 0.00
171, 14102.07, 7980.42, -5004.40, -12998.97, -19107.92, -12908.51, -1759.28, -32993.30, 0.00, 0.00, 0.00
172, 14142.15, 8013.30, -4956.86, -12937.41, -19219.35, -12888.69, -1723.88, -32920.34, 0.00, 0.00, 0.00
173, 14255.56, 8115.27, -4826.90, -12804.80, -19195.97, -12797.33, -1604.12, -32780.15, 0.00, 0.00, 0.00
174, 14230.06, 8095.00, -4861.21, -12851.74, -19081.28, -12803.66, -1622.76, -32838.54, 0.00, 0.00, 0.00
175, 14107.75, 7982.43, -5006.81, -13001.76, -19090.80, -12893.42, -1747.44, -32987.44, 0.00, 0.00, 0.00
176, 14125.07, 7999.11, -4990.97, -12972.26, -19201.20, -12900.67, -1738.72, -32943.99, 0.02, 0.96, 0.22
177, 14249.44, 8114.47, -4845.99, -12821.30, -19190.80, -12802.50, -1604.32, -32782.45, 0.00, 0.00, 0.00
178, 14244.61, 8107.25, -4854.69, -12842.69, -19090.42, -12790.92, -1604.41, -32805.43, 0.00, 0.00, 0.00
179, 14127.13, 7999.89, -4992.46, -12978.07, -19077.68, -12871.27, -1724.37, -32959.23, 0.00, 0.00, 0.00
180, 14101.29, 7974.23, -5026.55, -12996.42, -19201.47, -12906.37, -1765.05, -32977.29, 0.00, 0.00, 0.00
181, 14234.46, 8094.01, -4877.24, -12836.83, -19228.67, -12807.21, -1633.15, -32808.54, 0.00, 0.00, 0.00
182, 14270.90, 8128.06, -4836.43, -12808.60, -19119.95, -12764.52, -1587.11, -32780.98, 0.00, 0.00, 0.00
183, 14152.68, 8020.39, -4974.18, -12962.27, -19072.63, -12847.78, -1704.57, -32940.97, 0.00, 0.00, 0.00
184, 14087.66, 7959.05, -5045.19, -13030.60, -19184.10, -12914.41, -1777.66, -33000.79, 0.00, 0.00, 0.00
185, 14208.65, 8068.17, -4904.55, -12881.22, -19233.38, -12832.05, -1653.51, -32834.51, 0.00, 0.00, 0.00
186, 14273.91, 8128.61, -4832.42, -12819.53, -19126.92, -12766.53, -1576.02, -32771.10, 0.02, 0.96, 0.22
187, 14169.06, 8033.91, -4948.65, -12952.81, -19053.50, -12832.11, -1675.53, -32911.58, 0.00, 0.00, 0.00
188, 14082.47, 7954.81, -5044.45, -13043.72, -19155.87, -12904.87, -1767.78, -32998.46, 0.00, 0.00, 0.00
189, 14183.63, 8046.43, -4931.11, -12915.42, -19233.99, -12843.58, -1668.58, -32857.49, 0.00, 0.00, 0.00
190, 14275.08, 8131.99, -4827.06, -12813.56, -19158.35, -12767.88, -1570.81, -32755.79, 0.00, 0.00, 0.00
191, 14185.80, 8050.92, -4930.66, -12927.33, -19072.97, -12822.73, -1653.98, -32880.93, 0.00, 0.00, 0.00
192, 14088.39, 7959.84, -5050.49, -13042.94, -19139.24, -12910.39, -1765.68, -33000.05, 0.00, 0.00, 0.00
193, 14168.48, 8033.42, -4962.94, -12941.97, -19231.04, -12863.92, -1695.29, -32887.59, 0.00, 0.00, 0.00
194, 14276.71, 8130.98, -4837.79, -12817.21, -19180.66, -12767.61, -1576.42, -32755.88, 0.00, 0.00, 0.00
195, 14214.79, 8073.56, -4912.62, -12905.61, -19082.96, -12796.84, -1632.06, -32850.18, 0.02, 0.96, 0.22
196, 14098.83, 7965.54, -5047.58, -13045.08, -19118.70, -12891.39, -1755.77, -32991.87, 0.00, 0.00, 0.00
197, 14142.95, 8005.34, -5000.91, -12986.09, -19228.87, -12877.73, -1723.86, -32924.77, 0.00, 0.00, 0.00
198, 14266.67, 8122.47, -4858.60, -12838.08, -19208.64, -12777.82, -1594.55, -32765.67, 0.00, 0.00, 0.00
199, 14239.54, 8100.12, -4889.42, -12877.00, -19090.04, -12776.12, -1607.25, -32814.50, 0.00, 0.00, 0.00
200, 14119.46, 7990.50, -5035.22, -13024.12, -19087.67, -12874.85, -1738.36, -32979.04, 0.00, 0.00, 0.00
201, 14134.44, 8003.49, -5021.97, -12997.49, -19212.26, -12885.83, -1737.49, -32944.35, 0.00, 0.00, 0.00
202, 14265.60, 8121.98, -4872.66, -12839.94, -19219.79, -12781.98, -1602.64, -32775.86, 0.00, 0.00, 0.00
203, 14269.51, 8127.68, -4869.62, -12848.23, -19112.69, -12764.12, -1592.03, -32790.03, 0.00, 0.00, 0.00
204, 14149.86, 8017.70, -5010.34, -12996.29, -19083.79, -12849.59, -1712.86, -32945.29, 0.00, 0.00, 0.00
205, 14126.88, 7991.93, -5043.36, -13017.81, -19195.41, -12885.13, -1748.71, -32958.81, 0.02, 0.96, 0.22
206, 14249.82, 8104.83, -4900.98, -12867.56, -19229.38, -12792.82, -1620.72, -32794.52, 0.00, 0.00, 0.00
207, 14279.95, 8134.65, -4864.12, -12844.81, -19133.00, -12757.01, -1579.62, -32772.44, 0.00, 0.00, 0.00
208, 14168.52, 8032.70, -4993.47, -12988.46, -19080.16, -12831.82, -1689.32, -32924.45, 0.00, 0.00, 0.00
209, 14108.17, 7976.22, -5060.81, -13051.83, -19177.88, -12892.33, -1756.09, -32983.29, 0.00, 0.00, 0.00
210, 14216.51, 8075.42, -4936.52, -12918.84, -19245.43, -12822.84, -1650.16, -32834.91, 0.00, 0.00, 0.00
211, 14293.45, 8147.52, -4852.85, -12842.15, -19152.63, -12754.93, -1567.75, -32759.52, 0.00, 0.00, 0.00
212, 14191.93, 8054.03, -4974.78, -12975.90, -19079.65, -12818.64, -1668.16, -32901.99, 0.00, 0.00, 0.00
213, 14104.82, 7973.78, -5079.72, -13075.48, -19165.48, -12903.55, -1769.39, -33000.58, 0.00, 0.00, 0.00
214, 14197.31, 8059.44, -4976.68, -12957.53, -19240.25, -12846.58, -1682.46, -32872.55, 0.00, 0.00, 0.00
215, 14285.07, 8139.59, -4873.64, -12857.55, -19185.91, -12764.03, -1587.62, -32769.22, 0.02, 0.96, 0.22
216, 14215.80, 8077.83, -4956.37, -12953.19, -19091.83, -12803.41, -1651.17, -32874.23, 0.00, 0.00, 0.00
217, 14121.09, 7989.74, -5068.97, -13065.33, -19137.63, -12880.97, -1752.47, -32988.36, 0.00, 0.00, 0.00
218, 14171.05, 8034.69, -5008.11, -12993.81, -19245.77, -12856.37, -1702.71, -32897.79, 0.00, 0.00, 0.00
219, 14285.94, 8138.92, -4874.45, -12861.60, -19199.25, -12764.08, -1577.61, -32756.23, 0.00, 0.00, 0.00
220, 14237.50, 8096.18, -4928.31, -12930.17, -19087.00, -12781.64, -1613.93, -32833.59, 0.00, 0.00, 0.00
221, 14123.87, 7991.51, -5060.68, -13065.60, -19109.49, -12866.29, -1732.42, -32975.13, 0.00, 0.00, 0.00
222, 14151.27, 8013.50, -5021.83, -13019.73, -19224.31, -12861.46, -1713.13, -32919.94, 0.00, 0.00, 0.00
223, 14274.27, 8124.41, -4876.06, -12873.40, -19207.77, -12768.08, -1581.97, -32759.12, 0.00, 0.00, 0.00
224, 14253.95, 8106.04, -4905.72, -12914.19, -19102.20, -12772.59, -1594.82, -32806.75, 0.00, 0.00, 0.00
225, 14134.35, 7998.53, -5046.38, -13060.41, -19099.65, -12863.36, -1716.44, -32960.02, 0.03, 0.96, 0.22
226, 14143.36, 8007.76, -5039.25, -13040.81, -19210.85, -12873.35, -1720.88, -32932.88, 0.00, 0.00, 0.00
227, 14265.26, 8120.57, -4899.70, -12892.17, -19226.70, -12779.99, -1597.10, -32776.84, 0.00, 0.00, 0.00
228, 14268.15, 8123.61, -4895.79, -12899.50, -19126.81, -12763.34, -1584.83, -32790.45, 0.00, 0.00, 0.00
229, 14151.02, 8020.21, -5034.33, -13042.76, -19092.05, -12841.72, -1700.95, -32945.49, 0.00, 0.00, 0.00
230, 14110.19, 7980.60, -5089.29, -13083.75, -19201.49, -12894.99, -1756.44, -32982.61, 0.00, 0.00, 0.00
231, 14247.34, 8102.19, -4934.73, -12920.20, -19230.30, -12801.11, -1619.45, -32801.25, 0.00, 0.00, 0.00
232, 14286.70, 8140.48, -4885.55, -12884.93, -19142.32, -12753.97, -1566.39, -32766.18, 0.00, 0.00, 0.00
233, 14172.53, 8035.32, -5021.05, -13033.68, -19089.60, -12833.90, -1681.25, -32922.17, 0.00, 0.00, 0.00
234, 14111.57, 7978.03, -5096.44, -13101.74, -19184.05, -12893.47, -1755.82, -32979.35, 0.00, 0.00, 0.00
235, 14219.51, 8072.02, -4974.36, -12969.80, -19251.94, -12824.78, -1653.11, -32835.74, 0.02, 0.96, 0.22
236, 14294.34, 8141.53, -4888.80, -12889.18, -19169.06, -12757.50, -1568.85, -32755.70, 0.00, 0.00, 0.00
237, 14201.40, 8057.22, -4994.85, -13006.30, -19085.44, -12814.59, -1656.33, -32889.72, 0.00, 0.00, 0.00
238, 14106.41, 7969.13, -5103.60, -13110.06, -19166.82, -12893.27, -1761.41, -32992.56, 0.00, 0.00, 0.00
239, 14184.37, 8040.82, -5014.64, -13006.64, -19262.22, -12846.06, -1689.43, -32879.06, 0.00, 0.00, 0.00
240, 14292.29, 8138.11, -4893.65, -12888.95, -19191.05, -12757.01, -1573.18, -32755.77, 0.00, 0.00, 0.00
241, 14225.83, 8077.34, -4974.49, -12983.90, -19087.29, -12792.69, -1633.06, -32858.09, 0.00, 0.00, 0.00
242, 14116.58, 7977.54, -5105.70, -13112.40, -19133.81, -12881.44, -1747.84, -32987.73, 0.00, 0.00, 0.00
243, 14163.21, 8017.55, -5052.03, -13044.68, -19234.10, -12862.22, -1707.90, -32906.75, 0.00, 0.00, 0.00
244, 14275.68, 8119.00, -4915.91, -12909.58, -19207.14, -12768.30, -1586.46, -32762.89, 0.00, 0.00, 0.00
245, 14237.52, 8087.84, -4960.63, -12968.30, -19100.04, -12781.20, -1617.98, -32831.56, 0.02, 0.97, 0.21
246, 14121.47, 7981.99, -5097.02, -13109.59, -19115.19, -12868.99, -1738.38, -32978.28, 0.00, 0.00, 0.00
247, 14147.16, 8004.70, -5068.86, -13069.94, -19224.85, -12866.83, -1717.02, -32926.82, 0.00, 0.00, 0.00
248, 14269.60, 8116.95, -4927.75, -12922.91, -19218.95, -12770.58, -1586.12, -32770.45, 0.00, 0.00, 0.00
249, 14250.22, 8101.46, -4951.98, -12958.98, -19115.81, -12767.36, -1597.14, -32810.77, 0.00, 0.00, 0.00
250, 14138.26, 7999.40, -5088.15, -13101.34, -19100.66, -12851.56, -1715.25, -32961.65, 0.00, 0.00, 0.00
251, 14129.45, 7988.60, -5098.79, -13102.41, -19213.69, -12873.96, -1737.00, -32953.27, 0.00, 0.00, 0.00
252, 14260.55, 8107.51, -4946.13, -12943.58, -19228.96, -12779.36, -1608.25, -32784.49, 0.00, 0.00, 0.00
253, 14282.56, 8129.93, -4918.50, -12927.44, -19116.87, -12748.12, -1579.80, -32780.62, 0.00, 0.00, 0.00
254, 14169.24, 8026.35, -5048.95, -13067.10, -19073.10, -12822.19, -1691.40, -32928.75, 0.00, 0.00, 0.00
255, 14130.57, 7991.40, -5093.09, -13102.23, -19179.54, -12864.75, -1741.07, -32957.60, 0.02, 0.97, 0.22
0, 14245.91, 8094.75, -4960.72, -12956.79, -19220.69, -12779.41, -1621.17, -32800.40, 0.00, 0.00, 0.00
1, 14291.53, 8137.91, -4907.75, -12914.57, -19124.82, -12727.78, -1565.90, -32757.53, 0.00, 0.00, 0.00
2, 14182.38, 8040.01, -5033.90, -13055.03, -19072.38, -12799.93, -1670.84, -32904.05, 0.00, 0.00, 0.00
3, 14111.66, 7976.71, -5116.18, -13128.95, -19159.94, -12864.61, -1748.42, -32976.80, 0.00, 0.00, 0.00
4, 14216.20, 8072.89, -4998.90, -12999.53, -19230.59, -12796.93, -1647.19, -32834.18, 0.00, 0.00, 0.00
5, 14281.04, 8134.31, -4916.36, -12924.25, -19154.30, -12731.15, -1565.23, -32757.24, 0.00, 0.00, 0.00
6, 14184.55, 8046.81, -5024.43, -13050.04, -19074.29, -12795.70, -1656.44, -32888.54, 0.00, 0.00, 0.00
7, 14093.83, 7963.66, -5131.54, -13157.06, -19142.32, -12877.82, -1760.18, -32997.86, 0.00, 0.00, 0.00
8, 14173.13, 8032.34, -5039.07, -13053.37, -19237.23, -12831.13, -1687.71, -32885.14, 0.00, 0.00, 0.00
9, 14284.69, 8136.75, -4907.84, -12926.95, -19167.60, -12735.53, -1564.09, -32752.84, 0.02, 0.97, 0.22
10, 14220.80, 8083.02, -4978.65, -13015.73, -19059.91, -12769.22, -1617.89, -32853.87, 0.00, 0.00, 0.00
11, 14110.70, 7983.57, -5105.38, -13147.65, -19099.65, -12855.85, -1733.44, -32986.73, 0.00, 0.00, 0.00
12, 14155.38, 8026.40, -5052.92, -13086.07, -19209.63, -12834.57, -1696.43, -32909.75, 0.00, 0.00, 0.00
13, 14271.48, 8139.59, -4917.25, -12952.59, -19178.69, -12738.15, -1574.19, -32765.73, 0.00, 0.00, 0.00
14, 14234.10, 8109.97, -4959.63, -13014.06, -19069.81, -12751.04, -1606.69, -32832.72, 0.00, 0.00, 0.00
15, 14122.10, 8009.14, -5090.48, -13153.87, -19074.96, -12836.03, -1725.76, -32973.43, 0.00, 0.00, 0.00
16, 14142.57, 8028.03, -5066.72, -13119.85, -19175.09, -12835.27, -1713.84, -32926.89, 0.00, 0.00, 0.00
17, 14268.86, 8144.42, -4915.95, -12967.74, -19182.67, -12738.37, -1582.84, -32766.52, 0.00, 0.00, 0.00
18, 14256.19, 8136.93, -4923.91, -12991.66, -19081.15, -12730.86, -1582.84, -32798.55, 0.00, 0.00, 0.00
19, 14122.57, 8014.96, -5073.11, -13154.16, -19075.94, -12825.14, -1718.13, -32967.97, 0.02, 0.96, 0.22
20, 14117.70, 8012.18, -5080.95, -13154.49, -19183.36, -12847.58, -1735.26, -32957.78, 0.00, 0.00, 0.00
21, 14237.93, 8123.03, -4944.14, -13009.30, -19214.43, -12759.02, -1612.63, -32799.98, 0.00, 0.00, 0.00
22, 14264.28, 8153.60, -4912.76, -12989.51, -19110.29, -12724.33, -1574.66, -32777.09, 0.00, 0.00, 0.00
23, 14141.79, 8045.04, -5052.37, -13140.72, -19068.36, -12801.47, -1692.59, -32935.68, 0.00, 0.00, 0.00
24, 14093.09, 8002.68, -5115.84, -13194.77, -19176.37, -12858.73, -1759.04, -32988.63, 0.00, 0.00, 0.00
25, 14213.56, 8113.88, -4976.86, -13044.83, -19219.53, -12775.97, -1638.16, -32825.43, 0.00, 0.00, 0.00
26, 14275.17, 8174.73, -4905.29, -12978.34, -19117.74, -12712.24, -1567.10, -32757.38, 0.00, 0.00, 0.00
27, 14182.41, 8091.58, -5018.28, -13099.80, -19037.61, -12768.28, -1659.80, -32892.27, 0.00, 0.00, 0.00
28, 14101.13, 8015.02, -5111.29, -13185.85, -19128.89, -12842.51, -1750.74, -32978.63, 0.02, 0.96, 0.22
29, 14195.93, 8098.91, -4999.35, -13060.37, -19208.28, -12782.96, -1656.15, -32839.94, 0.00, 0.00, 0.00
30, 14282.16, 8179.78, -4900.71, -12965.44, -19129.96, -12707.06, -1557.40, -32741.88, 0.00, 0.00, 0.00
31, 14196.17, 8101.64, -5002.68, -13082.07, -19036.18, -12755.83, -1639.41, -32866.47, 0.00, 0.00, 0.00
32, 14098.79, 8010.86, -5119.13, -13199.69, -19095.21, -12839.20, -1751.46, -32985.47, 0.00, 0.00, 0.00
33, 14167.50, 8070.83, -5043.94, -13112.90, -19210.99, -12801.11, -1693.08, -32880.73, 0.00, 0.00, 0.00
34, 14279.05, 8174.55, -4916.71, -12987.21, -19156.83, -12705.31, -1572.38, -32744.52, 0.00, 0.00, 0.00
35, 14222.93, 8126.20, -4982.67, -13068.66, -19047.17, -12732.98, -1618.27, -32835.11, 0.00, 0.00, 0.00
36, 14108.76, 8020.57, -5117.23, -13206.26, -19086.42, -12832.94, -1740.42, -32980.76, 0.00, 0.00, 0.00
37, 14155.16, 8062.43, -5065.62, -13141.84, -19195.25, -12814.34, -1701.10, -32902.66, 0.00, 0.00, 0.00
38, 14271.32, 8169.03, -4926.75, -13000.38, -19173.13, -12718.01, -1572.13, -32752.75, 0.02, 0.97, 0.22
39, 14233.84, 8134.20, -4967.18, -13055.16, -19070.48, -12732.49, -1601.59, -32820.34, 0.00, 0.00, 0.00
40, 14112.71, 8024.03, -5105.79, -13200.85, -19078.08, -12825.12, -1728.55, -32974.66, 0.00, 0.00, 0.00
41, 14121.54, 8029.26, -5096.04, -13181.99, -19193.84, -12832.56, -1730.23, -32943.81, 0.00, 0.00, 0.00
42, 14242.93, 8140.24, -4952.50, -13033.50, -19202.83, -12736.67, -1599.45, -32778.03, 0.00, 0.00, 0.00
43, 14249.75, 8147.43, -4950.02, -13042.94, -19090.29, -12716.64, -1585.50, -32793.29, 0.00, 0.00, 0.00
44, 14128.27, 8035.00, -5090.92, -13192.04, -19064.18, -12803.30, -1704.68, -32951.12, 0.00, 0.00, 0.00
45, 14112.40, 8021.33, -5113.14, -13201.74, -19164.56, -12830.10, -1729.11, -32949.31, 0.00, 0.00, 0.00
46, 14228.58, 8124.37, -4978.90, -13060.48, -19193.24, -12747.02, -1608.36, -32793.38, 0.00, 0.00, 0.00
47, 14270.29, 8164.06, -4930.95, -13025.41, -19097.53, -12702.70, -1555.59, -32760.59, 0.00, 0.00, 0.00
48, 14154.53, 8060.22, -5065.29, -13168.82, -19050.75, -12774.78, -1672.11, -32916.38, 0.03, 0.96, 0.23
49, 14106.10, 8014.26, -5124.56, -13216.12, -19148.56, -12823.78, -1735.90, -32964.78, 0.00, 0.00, 0.00
50, 14209.05, 8105.66, -5003.91, -13082.30, -19216.35, -12749.75, -1631.79, -32823.27, 0.00, 0.00, 0.00
51, 14271.72, 8166.28, -4932.72, -13016.29, -19130.99, -12694.52, -1560.91, -32759.45, 0.00, 0.00, 0.00
52, 14179.79, 8087.42, -5041.35, -13135.58, -19046.97, -12750.19, -1647.46, -32883.84, 0.00, 0.00, 0.00
53, 14105.05, 8015.60, -5134.82, -13225.66, -19125.31, -12823.06, -1736.10, -32973.65, 0.00, 0.00, 0.00
54, 14193.87, 8093.45, -5037.52, -13116.81, -19210.68, -12771.34, -1652.96, -32849.75, 0.00, 0.00, 0.00
55, 14280.93, 8172.98, -4937.14, -13019.87, -19141.68, -12695.03, -1554.50, -32747.63, 0.00, 0.00, 0.00
56, 14201.61, 8101.86, -5027.11, -13125.55, -19046.68, -12738.68, -1624.84, -32861.62, 0.00, 0.00, 0.00
57, 14098.76, 8006.26, -5151.43, -13249.24, -19109.80, -12828.65, -1740.84, -32986.28, 0.00, 0.00, 0.00
58, 14172.30, 8072.65, -5071.16, -13155.59, -19205.87, -12790.27, -1673.41, -32877.76, 0.02, 0.96, 0.22
59, 14285.63, 8175.02, -4944.92, -13025.61, -19156.96, -12696.28, -1550.52, -32742.85, 0.00, 0.00, 0.00
60, 14230.04, 8124.14, -5011.93, -13103.60, -19047.04, -12721.96, -1598.95, -32830.22, 0.00, 0.00, 0.00
61, 14110.32, 8014.35, -5147.20, -13239.88, -19080.54, -12812.76, -1725.64, -32973.94, 0.00, 0.00, 0.00
62, 14147.60, 8046.29, -5102.21, -13181.07, -19204.15, -12801.83, -1698.53, -32908.94, 0.00, 0.00, 0.00
63, 14277.65, 8165.27, -4950.51, -13025.61, -19178.22, -12698.12, -1561.92, -32746.78, 0.00, 0.00, 0.00
64, 14250.87, 8143.52, -4979.63, -13068.66, -19068.70, -12697.29, -1578.12, -32794.61, 0.00, 0.00, 0.00
65, 14125.81, 8025.91, -5122.95, -13221.70, -19069.12, -12788.64, -1705.71, -32950.54, 0.00, 0.00, 0.00
66, 14125.03, 8022.85, -5128.54, -13216.68, -19188.01, -12814.32, -1719.07, -32936.97, 0.00, 0.00, 0.00
67, 14248.21, 8131.18, -4989.40, -13069.96, -19202.76, -12721.61, -1590.53, -32775.82, 0.00, 0.00, 0.00
68, 14252.12, 8133.11, -4985.62, -13079.68, -19101.11, -12701.65, -1577.30, -32786.21, 0.02, 0.96, 0.22
69, 14137.46, 8028.93, -5120.49, -13222.00, -19063.02, -12782.02, -1688.72, -32939.12, 0.00, 0.00, 0.00
70, 14103.88, 7996.22, -5159.94, -13250.81, -19174.29, -12823.53, -1730.94, -32960.33, 0.00, 0.00, 0.00
71, 14230.82, 8111.07, -5014.05, -13097.70, -19208.62, -12731.02, -1603.78, -32792.45, 0.00, 0.00, 0.00
72, 14273.56, 8152.49, -4964.41, -13058.54, -19108.01, -12685.93, -1550.34, -32757.06, 0.00, 0.00, 0.00
73, 14164.61, 8053.69, -5092.89, -13198.41, -19043.69, -12760.45, -1655.26, -32906.19, 0.00, 0.00, 0.00
74, 14123.26, 8014.20, -5147.34, -13246.51, -19117.31, -12812.91, -1710.33, -32953.04, 0.00, 0.00, 0.00
75, 14222.55, 8103.36, -5029.05, -13115.27, -19199.34, -12742.97, -1609.75, -32809.77, 0.00, 0.00, 0.00
76, 14285.54, 8162.32, -4955.31, -13042.60, -19126.14, -12681.19, -1538.27, -32741.44, 0.00, 0.00, 0.00
77, 14189.02, 8074.66, -5066.40, -13165.89, -19047.40, -12742.15, -1631.77, -32878.90, 0.00, 0.00, 0.00
78, 14106.45, 7996.96, -5164.24, -13258.99, -19123.64, -12817.61, -1727.32, -32975.44, 0.02, 0.97, 0.23
79, 14194.68, 8075.64, -5060.41, -13145.04, -19206.47, -12760.03, -1643.23, -32849.51, 0.00, 0.00, 0.00
80, 14286.23, 8162.05, -4950.33, -13042.73, -19140.49, -12673.53, -1540.28, -32736.74, 0.00, 0.00, 0.00
81, 14205.90, 8089.70, -5044.03, -13153.31, -19049.47, -12724.92, -1615.23, -32856.82, 0.00, 0.00, 0.00
82, 14104.35, 7995.26, -5164.46, -13275.35, -19100.55, -12813.90, -1726.54, -32981.18, 0.00, 0.00, 0.00
83, 14161.08, 8046.27, -5100.96, -13199.24, -19205.33, -12789.67, -1676.96, -32890.68, 0.00, 0.00, 0.00
84, 14277.02, 8151.99, -4970.56, -13068.15, -19162.06, -12694.54, -1552.02, -32753.57, 0.00, 0.00, 0.00
85, 14222.17, 8103.98, -5031.29, -13142.09, -19050.06, -12713.02, -1594.53, -32836.21, 0.00, 0.00, 0.00
86, 14106.39, 7999.15, -5163.92, -13280.42, -19084.54, -12805.63, -1720.79, -32981.74, 0.00, 0.00, 0.00
87, 14141.79, 8031.18, -5127.69, -13230.49, -19198.94, -12793.31, -1698.22, -32918.71, 0.00, 0.00, 0.00
88, 14264.79, 8144.26, -4985.04, -13083.19, -19183.09, -12693.04, -1565.65, -32762.22, 0.02, 0.96, 0.23
89, 14244.52, 8126.89, -5008.29, -13118.66, -19077.04, -12695.25, -1575.28, -32804.47, 0.00, 0.00, 0.00
90, 14124.00, 8015.80, -5150.53, -13265.31, -19068.05, -12788.68, -1701.15, -32964.38, 0.00, 0.00, 0.00
91, 14130.42, 8021.21, -5148.30, -13249.49, -19173.79, -12806.25, -1710.40, -32942.27, 0.00, 0.00, 0.00
92, 14249.66, 8129.02, -5010.25, -13102.32, -19193.08, -12713.65, -1585.50, -32782.25, 0.00, 0.00, 0.00
93, 14259.83, 8141.80, -5002.92, -13105.77, -19092.90, -12692.93, -1568.24, -32785.25, 0.00, 0.00, 0.00
94, 14148.23, 8039.23, -5135.89, -13250.20, -19050.46, -12773.04, -1679.87, -32936.93, 0.00, 0.00, 0.00
95, 14111.80, 8003.98, -5179.48, -13287.37, -19154.30, -12810.32, -1726.83, -32965.83, 0.00, 0.00, 0.00
96, 14224.34, 8108.30, -5048.70, -13148.14, -19204.26, -12726.84, -1611.16, -32810.48, 0.00, 0.00, 0.00
97, 14271.03, 8151.14, -4997.83, -13106.93, -19110.49, -12687.63, -1558.01, -32772.04, 0.00, 0.00, 0.00
98, 14157.28, 8047.32, -5127.24, -13246.92, -19050.82, -12765.24, -1666.08, -32924.54, 0.02, 0.96, 0.22
99, 14097.71, 7988.04, -5200.07, -13311.60, -19129.05, -12826.55, -1734.88, -32989.56, 0.00, 0.00, 0.00
100, 14203.26, 8081.05, -5078.25, -13177.58, -19203.79, -12755.65, -1631.88, -32843.63, 0.00, 0.00, 0.00
101, 14275.63, 8147.61, -4995.32, -13096.85, -19133.58, -12681.98, -1550.21, -32762.45, 0.00, 0.00, 0.00
102, 14190.52, 8073.54, -5096.02, -13205.92, -19047.06, -12722.48, -1627.86, -32879.23, 0.00, 0.00, 0.00
103, 14110.14, 7999.42, -5196.91, -13298.48, -19113.47, -12793.18, -1718.78, -32971.35, 0.00, 0.00, 0.00
104, 14185.65, 8068.17, -5110.30, -13195.93, -19204.84, -12745.43, -1644.95, -32857.36, 0.00, 0.00, 0.00
105, 14282.38, 8158.72, -4997.07, -13083.35, -19145.45, -12660.30, -1535.63, -32736.72, 0.00, 0.00, 0.00
106, 14213.21, 8095.62, -5079.70, -13180.58, -19046.99, -12702.07, -1600.34, -32845.04, 0.00, 0.00, 0.00
107, 14099.10, 7988.33, -5214.80, -13316.74, -19100.28, -12796.22, -1724.33, -32982.59, 0.00, 0.00, 0.00
108, 14156.57, 8038.38, -5153.04, -13245.24, -19207.05, -12768.81, -1675.20, -32889.68, 0.02, 0.96, 0.22
109, 14266.85, 8138.81, -5026.17, -13120.83, -19177.60, -12679.05, -1555.26, -32752.59, 0.00, 0.00, 0.00
110, 14227.60, 8103.47, -5074.16, -13185.05, -19063.06, -12697.29, -1584.38, -32821.95, 0.00, 0.00, 0.00
111, 14116.31, 8000.02, -5204.31, -13325.17, -19078.24, -12786.52, -1704.34, -32967.91, 0.00, 0.00, 0.00
112, 14128.51, 8006.57, -5189.72, -13300.65, -19209.58, -12792.71, -1702.80, -32929.17, 0.00, 0.00, 0.00
113, 14255.67, 8120.61, -5047.49, -13152.93, -19206.45, -12703.48, -1574.73, -32771.93, 0.00, 0.00, 0.00
114, 14256.86, 8126.92, -5049.19, -13166.58, -19088.54, -12691.12, -1566.19, -32795.68, 0.00, 0.00, 0.00
115, 14133.99, 8014.40, -5191.73, -13316.32, -19074.31, -12775.63, -1689.70, -32952.04, 0.00, 0.00, 0.00
116, 14112.94, 7992.02, -5214.64, -13326.83, -19192.66, -12806.41, -1720.01, -32954.50, 0.00, 0.00, 0.00
117, 14234.06, 8102.37, -5071.92, -13173.47, -19214.34, -12717.18, -1593.52, -32793.50, 0.02, 0.97, 0.22
118, 14257.71, 8123.47, -5042.20, -13152.57, -19110.54, -12683.12, -1558.92, -32779.48, 0.00, 0.00, 0.00
119, 14143.78, 8020.30, -5172.15, -13290.59, -19060.90, -12753.97, -1665.05, -32927.23, 0.00, 0.00, 0.00
120, 14100.89, 7980.62, -5225.10, -13331.90, -19153.86, -12800.71, -1718.63, -32962.99, 0.00, 0.00, 0.00
121, 14214.68, 8083.33, -5090.63, -13185.94, -19215.44, -12720.06, -1606.33, -32808.70, 0.00, 0.00, 0.00
122, 14274.76, 8141.76, -5021.12, -13123.25, -19124.73, -12662.38, -1534.92, -32750.09, 0.00, 0.00, 0.00
123, 14171.18, 8047.39, -5144.46, -13260.46, -19058.57, -12731.40, -1635.59, -32894.82, 0.00, 0.00, 0.00
124, 14104.13, 7983.98, -5228.36, -13339.63, -19149.63, -12801.98, -1720.79, -32974.79, 0.00, 0.00, 0.00
125, 14204.06, 8073.81, -5113.77, -13213.88, -19220.69, -12736.96, -1622.00, -32832.77, 0.00, 0.00, 0.00
126, 14280.93, 8147.64, -5021.16, -13128.90, -19146.26, -12666.15, -1531.59, -32741.73, 0.00, 0.00, 0.00
127, 14188.86, 8060.91, -5128.09, -13249.64, -19062.17, -12723.98, -1617.48, -32875.41, 0.02, 0.97, 0.22
128, 14092.86, 7970.99, -5242.65, -13359.48, -19130.66, -12805.16, -1723.23, -32983.82, 0.00, 0.00, 0.00
129, 14171.07, 8039.50, -5154.04, -13254.94, -19210.25, -12752.38, -1646.74, -32862.07, 0.00, 0.00, 0.00
130, 14272.21, 8133.06, -5034.33, -13137.46, -19166.78, -12666.67, -1539.19, -32742.09, 0.00, 0.00, 0.00
131, 14214.17, 8082.82, -5103.04, -13219.04, -19075.11, -12698.50, -1590.68, -32834.40, 0.00, 0.00, 0.00
132, 14107.91, 7980.78, -5232.32, -13348.28, -19109.09, -12782.00, -1702.91, -32965.71, 0.00, 0.00, 0.00
133, 14145.46, 8012.94, -5195.13, -13298.44, -19223.75, -12776.64, -1676.49, -32901.79, 0.00, 0.00, 0.00
134, 14264.66, 8123.03, -5058.69, -13159.68, -19194.36, -12684.41, -1550.00, -32752.05, 0.00, 0.00, 0.00
135, 14234.75, 8094.93, -5096.98, -13207.89, -19083.36, -12687.34, -1571.75, -32809.34, 0.00, 0.00, 0.00
136, 14108.98, 7980.42, -5250.87, -13361.74, -19099.52, -12787.39, -1706.35, -32971.53, 0.00, 0.00, 0.00
137, 14111.53, 7979.66, -5244.77, -13339.05, -19216.55, -12805.29, -1711.00, -32943.48, 0.02, 0.97, 0.22
138, 14244.01, 8097.50, -5085.40, -13168.82, -19203.46, -12698.54, -1566.57, -32767.84, 0.00, 0.00, 0.00
139, 14246.53, 8102.40, -5081.40, -13174.92, -19088.61, -12675.85, -1552.17, -32783.04, 0.00, 0.00, 0.00
140, 14120.22, 7987.82, -5229.17, -13332.46, -19073.59, -12765.51, -1676.81, -32945.96, 0.00, 0.00, 0.00
141, 14098.83, 7970.03, -5256.84, -13348.66, -19182.91, -12799.57, -1707.11, -32953.42, 0.00, 0.00, 0.00
142, 14220.94, 8082.39, -5111.93, -13199.38, -19202.09, -12708.33, -1578.99, -32788.87, 0.00, 0.00, 0.00
143, 14249.04, 8108.88, -5078.25, -13181.16, -19117.65, -12679.90, -1543.79, -32771.32, 0.00, 0.00, 0.00
144, 14135.06, 8004.18, -5214.68, -13329.73, -19077.04, -12764.19, -1659.42, -32931.52, 0.00, 0.00, 0.00
145, 14093.09, 7963.86, -5269.09, -13375.64, -19174.46, -12809.81, -1712.84, -32966.41, 0.00, 0.00, 0.00
146, 14208.51, 8067.37, -5135.36, -13231.52, -19227.80, -12730.39, -1597.30, -32810.95, 0.00, 0.00, 0.00
147, 14269.22, 8124.86, -5065.04, -13168.84, -19139.24, -12670.00, -1526.98, -32749.64, 0.02, 0.96, 0.22
148, 14166.54, 8034.69, -5184.53, -13301.41, -19069.72, -12736.27, -1626.92, -32895.87, 0.00, 0.00, 0.00
149, 14097.98, 7971.62, -5270.12, -13382.97, -19149.95, -12802.83, -1711.76, -32977.34, 0.00, 0.00, 0.00
150, 14184.22, 8050.45, -5169.94, -13269.87, -19238.30, -12746.80, -1632.71, -32849.66, 0.00, 0.00, 0.00
151, 14266.96, 8126.62, -5074.74, -13176.78, -19165.41, -12673.04, -1539.57, -32749.04, 0.00, 0.00, 0.00
152, 14190.83, 8057.83, -5161.60, -13280.53, -19068.52, -12719.53, -1612.77, -32867.14, 0.00, 0.00, 0.00
153, 14096.48, 7970.25, -5272.37, -13391.33, -19140.71, -12800.80, -1718.74, -32981.32, 0.00, 0.00, 0.00
154, 14164.17, 8030.11, -5202.08, -13303.78, -19242.53, -12763.36, -1659.48, -32879.93, 0.00, 0.00, 0.00
155, 14269.24, 8128.55, -5079.68, -13181.25, -19193.93, -12673.71, -1542.11, -32750.38, 0.00, 0.00, 0.00
156, 14220.54, 8083.96, -5140.16, -13255.50, -19088.93, -12694.07, -1582.35, -32829.66, 0.00, 0.00, 0.00
157, 14106.86, 7976.47, -5278.07, -13394.98, -19126.14, -12783.61, -1705.08, -32974.30, 0.02, 0.96, 0.23
158, 14133.86, 7999.53, -5248.64, -13348.64, -19245.81, -12777.87, -1684.07, -32917.64, 0.00, 0.00, 0.00
159, 14259.72, 8113.30, -5104.71, -13200.98, -19223.35, -12677.15, -1552.75, -32761.42, 0.00, 0.00, 0.00
160, 14238.91, 8096.32, -5130.66, -13240.14, -19114.47, -12683.52, -1569.45, -32809.07, 0.00, 0.00, 0.00
161, 14127.33, 7995.02, -5260.80, -13375.73, -19110.49, -12767.61, -1685.75, -32954.09, 0.00, 0.00, 0.00
162, 14129.43, 7993.16, -5261.69, -13364.69, -19228.33, -12787.23, -1696.12, -32933.28, 0.00, 0.00, 0.00
163, 14253.19, 8105.37, -5120.38, -13213.61, -19231.13, -12688.44, -1564.82, -32765.91, 0.00, 0.00, 0.00
164, 14254.80, 8111.34, -5117.03, -13220.90, -19111.99, -12665.12, -1545.49, -32771.99, 0.00, 0.00, 0.00
165, 14135.56, 8002.04, -5257.15, -13371.17, -19090.45, -12751.71, -1668.69, -32933.68, 0.00, 0.00, 0.00
166, 14110.39, 7978.10, -5291.08, -13393.34, -19211.66, -12789.31, -1707.20, -32947.92, 0.00, 0.00, 0.00
167, 14226.21, 8083.64, -5155.79, -13248.33, -19248.63, -12703.86, -1587.29, -32789.83, 0.02, 0.96, 0.21
168, 14272.62, 8127.29, -5106.03, -13208.09, -19141.38, -12661.44, -1533.37, -32751.76, 0.00, 0.00, 0.00
169, 14154.60, 8020.32, -5244.37, -13359.17, -19091.23, -12746.10, -1649.65, -32914.55, 0.00, 0.00, 0.00
170, 14091.52, 7961.80, -5318.08, -13425.24, -19196.26, -12809.96, -1725.49, -32978.63, 0.00, 0.00, 0.00
171, 14206.92, 8066.86, -5187.68, -13280.58, -19252.65, -12729.38, -1610.04, -32816.25, 0.00, 0.00, 0.00
172, 14273.29, 8128.68, -5112.76, -13210.80, -19165.01, -12664.92, -1532.70, -32744.63, 0.00, 0.00, 0.00
173, 14170.51, 8034.69, -5232.90, -13343.81, -19094.40, -12729.47, -1630.83, -32890.90, 0.00, 0.00, 0.00
174, 14101.42, 7970.30, -5320.77, -13425.82, -19170.33, -12797.83, -1717.31, -32977.02, 0.00, 0.00, 0.00
175, 14193.00, 8051.57, -5216.07, -13305.97, -19247.53, -12729.61, -1627.12, -32838.20, 0.00, 0.00, 0.00
176, 14283.35, 8134.00, -5114.01, -13205.88, -19175.25, -12648.11, -1523.70, -32730.24, 0.00, 0.00, 0.00
177, 14202.34, 8060.89, -5208.11, -13315.85, -19082.89, -12699.75, -1601.21, -32851.52, 0.01, 0.97, 0.22
178, 14102.65, 7969.20, -5326.35, -13435.99, -19154.37, -12788.42, -1717.66, -32979.59, 0.00, 0.00, 0.00
179, 14159.05, 8021.35, -5259.45, -13354.36, -19262.91, -12762.60, -1669.23, -32890.84, 0.00, 0.00, 0.00
180, 14256.55, 8111.31, -5138.40, -13230.20, -19223.30, -12677.28, -1558.01, -32762.94, 0.00, 0.00, 0.00
181, 14215.33, 8073.81, -5187.62, -13293.01, -19115.17, -12694.87, -1592.92, -32833.23, 0.00, 0.00, 0.00
182, 14108.78, 7974.95, -5314.91, -13423.43, -19130.75, -12775.79, -1705.30, -32967.91, 0.00, 0.00, 0.00
183, 14130.86, 7992.63, -5292.94, -13388.16, -19247.11, -12777.29, -1687.24, -32917.84, 0.00, 0.00, 0.00
184, 14261.75, 8110.71, -5144.59, -13237.80, -19220.51, -12678.85, -1543.97, -32753.17, 0.00, 0.00, 0.00
185, 14242.17, 8096.47, -5167.70, -13273.29, -19106.29, -12675.67, -1551.30, -32793.52, 0.00, 0.00, 0.00
186, 14123.37, 7988.09, -5310.69, -13423.92, -19098.71, -12765.57, -1677.25, -32952.48, 0.00, 0.00, 0.00
187, 14121.63, 7984.71, -5317.48, -13421.84, -19205.15, -12787.75, -1694.82, -32940.43, 0.02, 0.96, 0.22
188, 14249.88, 8102.08, -5165.44, -13267.37, -19229.45, -12695.10, -1565.76, -32776.17, 0.00, 0.00, 0.00
189, 14256.93, 8110.02, -5159.56, -13269.29, -19134.68, -12676.70, -1550.47, -32786.63, 0.00, 0.00, 0.00
190, 14138.06, 8003.62, -5297.70, -13415.05, -19102.72, -12762.20, -1670.75, -32944.64, 0.00, 0.00, 0.00
191, 14095.66, 7964.89, -5344.48, -13449.76, -19218.37, -12802.36, -1723.57, -32975.66, 0.00, 0.00, 0.00
192, 14218.23, 8075.95, -5205.65, -13297.77, -19256.36, -12708.84, -1598.64, -32810.04, 0.00, 0.00, 0.00
193, 14257.80, 8110.15, -5162.11, -13264.42, -19161.64, -12667.16, -1550.43, -32777.51, 0.00, 0.00, 0.00
194, 14148.99, 8010.62, -5292.94, -13406.62, -19098.27, -12744.79, -1656.51, -32923.36, 0.00, 0.00, 0.00
195, 14094.09, 7959.39, -5358.32, -13469.29, -19186.31, -12803.44, -1726.85, -32983.98, 0.00, 0.00, 0.00
196, 14206.30, 8060.20, -5232.34, -13331.16, -19258.02, -12728.80, -1618.69, -32833.08, 0.03, 0.96, 0.23
197, 14276.17, 8125.19, -5151.34, -13253.33, -19173.28, -12663.58, -1537.71, -32757.42, 0.00, 0.00, 0.00
198, 14178.02, 8036.19, -5263.66, -13376.49, -19097.38, -12727.35, -1631.65, -32893.07, 0.00, 0.00, 0.00
199, 14090.90, 7954.92, -5363.06, -13472.11, -19169.84, -12798.30, -1726.92, -32978.19, 0.00, 0.00, 0.00
200, 14179.23, 8033.42, -5264.71, -13358.97, -19253.12, -12742.33, -1646.00, -32855.32, 0.00, 0.00, 0.00
201, 14271.45, 8118.35, -5158.13, -13253.69, -19194.04, -12659.31, -1542.76, -32743.99, 0.00, 0.00, 0.00
202, 14191.55, 8048.71, -5247.76, -13355.84, -19107.32, -12707.68, -1614.11, -32859.12, 0.00, 0.00, 0.00
203, 14093.85, 7959.77, -5364.17, -13471.60, -19149.12, -12789.42, -1720.77, -32976.15, 0.00, 0.00, 0.00
204, 14142.91, 8002.91, -5306.57, -13402.15, -19252.74, -12766.22, -1675.73, -32893.50, 0.00, 0.00, 0.00
205, 14255.74, 8104.72, -5176.55, -13267.79, -19216.20, -12671.00, -1550.81, -32747.52, 0.00, 0.00, 0.00
206, 14219.15, 8072.15, -5224.30, -13323.32, -19111.10, -12684.30, -1581.52, -32813.66, 0.03, 0.96, 0.23
207, 14112.47, 7973.29, -5353.29, -13451.93, -19120.66, -12766.00, -1696.36, -32953.78, 0.00, 0.00, 0.00
208, 14137.95, 7995.13, -5327.00, -13412.23, -19229.07, -12764.19, -1684.96, -32909.48, 0.00, 0.00, 0.00
209, 14255.29, 8104.05, -5190.30, -13268.20, -19225.18, -12670.29, -1561.96, -32752.01, 0.00, 0.00, 0.00
210, 14248.77, 8099.29, -5199.04, -13290.79, -19115.03, -12657.86, -1559.91, -32777.78, 0.00, 0.00, 0.00
211, 14123.28, 7981.32, -5347.30, -13448.84, -19097.08, -12749.66, -1685.48, -32943.54, 0.00, 0.00, 0.00
212, 14114.63, 7971.01, -5361.38, -13457.34, -19209.38, -12780.64, -1709.95, -32940.73, 0.00, 0.00, 0.00
213, 14241.03, 8085.99, -5213.52, -13303.89, -19238.97, -12686.20, -1579.62, -32773.56, 0.00, 0.00, 0.00
214, 14256.08, 8100.79, -5194.39, -13296.74, -19139.53, -12657.73, -1554.45, -32768.42, 0.00, 0.00, 0.00
215, 14141.30, 7995.78, -5329.82, -13442.25, -19099.59, -12738.86, -1671.17, -32926.67, 0.00, 0.00, 0.00
216, 14105.47, 7963.66, -5374.61, -13478.86, -19204.26, -12788.08, -1720.55, -32957.02, 0.02, 0.96, 0.23
217, 14234.60, 8079.73, -5227.34, -13322.31, -19239.13, -12692.88, -1588.85, -32784.22, 0.00, 0.00, 0.00
218, 14289.98, 8133.11, -5164.97, -13269.45, -19140.36, -12640.38, -1523.09, -32732.83, 0.00, 0.00, 0.00
219, 14176.06, 8028.57, -5296.27, -13411.90, -19082.60, -12712.91, -1633.71, -32889.56, 0.00, 0.00, 0.00
220, 14108.64, 7962.65, -5378.70, -13487.47, -19174.82, -12781.62, -1714.54, -32962.21, 0.00, 0.00, 0.00
221, 14211.04, 8057.42, -5258.23, -13354.43, -19236.83, -12706.41, -1608.52, -32811.13, 0.00, 0.00, 0.00
222, 14278.63, 8123.90, -5173.07, -13274.28, -19162.24, -12640.89, -1526.65, -32730.87, 0.00, 0.00, 0.00
223, 14186.00, 8044.04, -5274.16, -13387.93, -19075.69, -12690.96, -1605.53, -32858.54, 0.00, 0.00, 0.00
224, 14087.30, 7951.77, -5385.32, -13497.48, -19137.61, -12773.75, -1709.73, -32970.39, 0.00, 0.00, 0.00
225, 14160.81, 8017.32, -5295.17, -13399.67, -19237.68, -12728.87, -1642.47, -32858.49, 0.00, 0.00, 0.00
226, 14257.19, 8108.27, -5177.65, -13291.13, -19184.35, -12648.72, -1534.27, -32743.36, 0.02, 0.96, 0.23
227, 14199.66, 8059.26, -5241.13, -13373.52, -19077.37, -12675.23, -1581.99, -32832.79, 0.00, 0.00, 0.00
228, 14088.10, 7956.71, -5367.08, -13505.24, -19120.26, -12762.69, -1703.36, -32968.93, 0.00, 0.00, 0.00
229, 14135.02, 8000.76, -5309.37, -13439.39, -19225.88, -12741.05, -1666.37, -32893.88, 0.00, 0.00, 0.00
230, 14255.14, 8113.88, -5165.13, -13299.02, -19189.62, -12640.94, -1538.16, -32744.12, 0.00, 0.00, 0.00
231, 14223.82, 8089.12, -5203.51, -13352.55, -19077.64, -12652.72, -1561.29, -32808.34, 0.00, 0.00, 0.00
232, 14108.60, 7984.06, -5341.82, -13496.36, -19080.43, -12743.00, -1684.20, -32958.36, 0.00, 0.00, 0.00
233, 14112.67, 7988.33, -5333.86, -13480.49, -19199.30, -12752.94, -1692.65, -32926.58, 0.00, 0.00, 0.00
234, 14235.22, 8105.35, -5187.04, -13332.95, -19216.51, -12658.53, -1567.82, -32765.91, 0.00, 0.00, 0.00
235, 14238.58, 8113.97, -5183.28, -13345.56, -19109.56, -12640.72, -1557.45, -32782.45, 0.00, 0.00, 0.00
236, 14112.20, 8002.35, -5325.55, -13500.36, -19096.62, -12731.98, -1684.47, -32946.00, 0.02, 0.96, 0.24
237, 14092.60, 7987.22, -5343.70, -13510.80, -19206.94, -12765.33, -1715.97, -32951.48, 0.00, 0.00, 0.00
238, 14214.08, 8097.90, -5203.62, -13365.14, -19234.05, -12677.22, -1595.04, -32797.25, 0.00, 0.00, 0.00
239, 14246.20, 8132.03, -5167.28, -13340.62, -19130.90, -12639.20, -1555.73, -32776.51, 0.00, 0.00, 0.00
240, 14133.70, 8033.02, -5301.52, -13481.03, -19085.80, -12714.36, -1666.90, -32925.39, 0.00, 0.00, 0.00
241, 14094.50, 8001.32, -5352.82, -13519.68, -19183.03, -12757.08, -1720.08, -32963.68, 0.00, 0.00, 0.00
242, 14201.83, 8102.04, -5226.98, -13379.89, -19236.74, -12670.89, -1608.86, -32803.80, 0.00, 0.00, 0.00
243, 14260.12, 8160.82, -5157.44, -13317.46, -19145.23, -12611.35, -1539.10, -32740.10, 0.00, 0.00, 0.00
244, 14150.75, 8062.16, -5284.22, -13454.39, -19079.76, -12679.76, -1643.81, -32889.14, 0.00, 0.00, 0.00
245, 14074.27, 7992.22, -5376.87, -13542.07, -19158.35, -12750.69, -1736.04, -32976.11, 0.00, 0.00, 0.00
246, 14171.43, 8081.79, -5260.77, -13416.83, -19237.61, -12686.34, -1644.33, -32837.84, 0.02, 0.97, 0.23
247, 14256.10, 8162.23, -5165.96, -13323.92, -19172.74, -12610.83, -1553.54, -32742.69, 0.00, 0.00, 0.00
248, 14178.96, 8094.68, -5260.42, -13430.16, -19084.16, -12656.99, -1627.34, -32860.37, 0.00, 0.00, 0.00
249, 14088.33, 8008.90, -5373.29, -13540.64, -19144.76, -12732.72, -1731.52, -32971.53, 0.00, 0.00, 0.00
250, 14163.63, 8076.11, -5291.84, -13445.11, -19235.87, -12690.14, -1665.29, -32857.44, 0.00, 0.00, 0.00
251, 14274.02, 8177.63, -5166.09, -13321.86, -19173.57, -12599.50, -1543.86, -32724.67, 0.00, 0.00, 0.00
252, 14210.14, 8123.16, -5239.56, -13410.96, -19064.00, -12630.97, -1598.62, -32823.82, 0.00, 0.00, 0.00
253, 14094.76, 8015.74, -5372.06, -13549.63, -19114.67, -12725.92, -1726.31, -32967.39, 0.00, 0.00, 0.00
254, 14141.28, 8057.87, -5321.15, -13487.98, -19225.65, -12709.56, -1692.12, -32895.15, 0.00, 0.00, 0.00
255, 14266.31, 8174.66, -5173.91, -13339.77, -19190.96, -12604.55, -1559.44, -32737.35, 0.00, 0.00, 0.00
0, 14233.12, 8145.74, -5211.13, -13389.30, -19084.23, -12612.80, -1582.44, -32793.61, 0.03, 0.96, 0.24
1, 14113.58, 8034.31, -5349.08, -13531.03, -19089.87, -12700.84, -1702.51, -32938.89, 0.00, 0.00, 0.00
2, 14125.50, 8046.99, -5338.58, -13508.75, -19200.08, -12708.35, -1702.55, -32909.39, 0.00, 0.00, 0.00
3, 14247.11, 8156.49, -5201.90, -13365.45, -19208.66, -12618.50, -1576.78, -32751.76, 0.00, 0.00, 0.00
4, 14250.87, 8160.98, -5197.96, -13372.89, -19104.37, -12603.57, -1563.08, -32767.68, 0.00, 0.00, 0.00
5, 14126.17, 8048.28, -5341.33, -13524.82, -19083.40, -12689.22, -1686.08, -32928.97, 0.00, 0.00, 0.00
6, 14103.86, 8026.15, -5370.88, -13545.67, -19195.50, -12729.81, -1724.35, -32944.88, 0.00, 0.00, 0.00
7, 14227.18, 8139.61, -5229.55, -13393.81, -19224.94, -12638.59, -1598.08, -32781.16, 0.00, 0.00, 0.00
8, 14262.69, 8174.10, -5191.33, -13362.07, -19117.76, -12595.74, -1552.22, -32752.50, 0.00, 0.00, 0.00
9, 14150.69, 8072.85, -5320.77, -13503.36, -19061.99, -12672.95, -1665.18, -32907.51, 0.00, 0.00, 0.00
10, 14104.24, 8029.06, -5376.91, -13553.52, -19171.13, -12723.75, -1728.95, -32950.05, 0.02, 0.96, 0.23
11, 14215.11, 8127.14, -5250.18, -13413.37, -19227.69, -12643.44, -1615.38, -32791.17, 0.00, 0.00, 0.00
12, 14269.26, 8177.43, -5188.02, -13356.75, -19148.72, -12594.89, -1551.95, -32735.27, 0.00, 0.00, 0.00
13, 14166.27, 8081.74, -5307.09, -13490.69, -19081.46, -12663.11, -1653.58, -32879.77, 0.00, 0.00, 0.00
14, 14090.11, 8012.07, -5397.97, -13579.11, -19159.40, -12734.30, -1742.79, -32967.75, 0.00, 0.00, 0.00
15, 14181.13, 8095.24, -5291.80, -13460.98, -19234.93, -12671.70, -1653.49, -32835.81, 0.00, 0.00, 0.00
16, 14264.75, 8174.28, -5191.66, -13367.13, -19172.14, -12600.93, -1559.41, -32738.13, 0.00, 0.00, 0.00
17, 14188.08, 8104.92, -5285.43, -13473.21, -19084.05, -12644.07, -1629.35, -32853.80, 0.00, 0.00, 0.00
18, 14090.11, 8013.50, -5401.66, -13588.72, -19135.42, -12726.23, -1736.22, -32971.26, 0.00, 0.00, 0.00
19, 14154.51, 8067.30, -5322.33, -13500.92, -19244.09, -12692.28, -1679.42, -32873.54, 0.00, 0.00, 0.00
20, 14269.89, 8172.96, -5186.41, -13367.88, -19194.87, -12596.41, -1554.83, -32734.87, 0.02, 0.96, 0.23
21, 14223.82, 8132.70, -5241.46, -13438.72, -19091.21, -12613.78, -1593.95, -32812.11, 0.00, 0.00, 0.00
22, 14103.30, 8020.25, -5384.36, -13585.55, -19122.63, -12705.33, -1718.45, -32959.86, 0.00, 0.00, 0.00
23, 14137.12, 8048.30, -5347.81, -13537.62, -19226.79, -12698.07, -1692.21, -32897.07, 0.00, 0.00, 0.00
24, 14244.30, 8145.20, -5223.18, -13410.08, -19207.43, -12614.12, -1577.59, -32759.36, 0.00, 0.00, 0.00
25, 14231.65, 8135.03, -5237.84, -13440.57, -19094.74, -12615.39, -1587.13, -32797.81, 0.00, 0.00, 0.00
26, 14117.52, 8030.49, -5369.20, -13578.55, -19101.76, -12694.96, -1704.30, -32945.60, 0.00, 0.00, 0.00
27, 14113.52, 8022.80, -5377.00, -13572.63, -19221.02, -12709.25, -1720.84, -32934.76, 0.00, 0.00, 0.00
28, 14236.74, 8135.79, -5234.98, -13422.69, -19229.52, -12617.65, -1591.33, -32772.95, 0.00, 0.00, 0.00
29, 14250.09, 8148.15, -5220.36, -13416.68, -19121.00, -12592.64, -1564.91, -32767.84, 0.03, 0.96, 0.23
30, 14141.08, 8047.03, -5349.40, -13553.74, -19083.63, -12671.81, -1672.56, -32918.17, 0.00, 0.00, 0.00
31, 14113.90, 8020.72, -5382.59, -13578.86, -19186.38, -12707.73, -1713.02, -32935.12, 0.00, 0.00, 0.00
32, 14229.50, 8127.12, -5247.43, -13434.11, -19225.70, -12619.48, -1597.46, -32776.35, 0.00, 0.00, 0.00
33, 14270.54, 8166.70, -5198.61, -13395.40, -19126.88, -12571.98, -1545.11, -32739.85, 0.00, 0.00, 0.00
34, 14145.32, 8049.67, -5345.96, -13552.13, -19076.07, -12655.16, -1664.89, -32906.15, 0.00, 0.00, 0.00
35, 14085.67, 7995.91, -5416.63, -13615.48, -19178.33, -12718.99, -1740.13, -32970.21, 0.00, 0.00, 0.00
36, 14193.69, 8093.54, -5293.34, -13477.59, -19249.70, -12642.01, -1630.87, -32820.61, 0.00, 0.00, 0.00
37, 14262.67, 8156.60, -5214.93, -13404.25, -19165.77, -12576.70, -1547.12, -32744.14, 0.00, 0.00, 0.00
38, 14170.02, 8071.51, -5322.60, -13525.87, -19084.01, -12634.57, -1631.07, -32874.86, 0.00, 0.00, 0.00
39, 14082.85, 7990.32, -5423.70, -13624.73, -19159.49, -12715.13, -1727.88, -32974.39, 0.03, 0.96, 0.23
40, 14180.71, 8078.46, -5313.64, -13502.51, -19234.32, -12653.50, -1639.12, -32842.63, 0.00, 0.00, 0.00
41, 14275.63, 8166.01, -5203.80, -13394.86, -19169.01, -12567.60, -1534.92, -32728.90, 0.00, 0.00, 0.00
42, 14208.00, 8105.95, -5285.72, -13489.41, -19072.88, -12604.68, -1597.95, -32833.41, 0.00, 0.00, 0.00
43, 14104.71, 8010.89, -5408.36, -13612.70, -19124.31, -12690.65, -1711.63, -32958.16, 0.00, 0.00, 0.00
44, 14154.91, 8054.63, -5350.34, -13544.98, -19229.34, -12670.44, -1671.22, -32876.18, 0.00, 0.00, 0.00
45, 14269.76, 8159.59, -5219.13, -13414.22, -19180.03, -12577.66, -1553.04, -32738.17, 0.00, 0.00, 0.00
46, 14220.27, 8113.91, -5272.49, -13486.17, -19083.85, -12599.81, -1597.34, -32818.48, 0.00, 0.00, 0.00
47, 14105.38, 8010.02, -5408.14, -13625.76, -19120.40, -12690.16, -1723.81, -32968.60, 0.00, 0.00, 0.00
48, 14134.64, 8036.37, -5375.01, -13582.35, -19228.06, -12687.27, -1708.21, -32917.01, 0.00, 0.00, 0.00
49, 14259.99, 8151.30, -5228.90, -13430.47, -19208.89, -12582.96, -1570.63, -32747.45, 0.02, 0.96, 0.23
50, 14239.65, 8134.43, -5253.20, -13464.33, -19105.22, -12581.10, -1576.78, -32788.02, 0.00, 0.00, 0.00
51, 14124.38, 8029.75, -5392.47, -13605.15, -19094.51, -12666.44, -1692.61, -32939.52, 0.00, 0.00, 0.00
52, 14116.98, 8021.17, -5407.24, -13605.31, -19204.57, -12689.38, -1711.20, -32932.88, 0.00, 0.00, 0.00
53, 14241.23, 8133.46, -5265.27, -13451.46, -19210.88, -12592.68, -1579.46, -32766.00, 0.00, 0.00, 0.00
54, 14259.47, 8151.32, -5243.65, -13440.59, -19101.98, -12560.67, -1550.09, -32756.44, 0.00, 0.00, 0.00
55, 14143.76, 8042.72, -5381.34, -13589.37, -19080.32, -12643.20, -1669.65, -32913.03, 0.00, 0.00, 0.00
56, 14102.21, 8003.35, -5427.43, -13626.81, -19186.22, -12689.15, -1720.50, -32946.22, 0.00, 0.00, 0.00
57, 14208.91, 8100.27, -5299.40, -13487.40, -19235.04, -12613.85, -1609.73, -32795.06, 0.00, 0.00, 0.00
58, 14270.72, 8159.41, -5232.45, -13428.19, -19132.96, -12555.67, -1543.88, -32742.26, 0.00, 0.00, 0.00
59, 14161.64, 8059.79, -5359.55, -13565.41, -19077.82, -12622.39, -1651.32, -32891.26, 0.02, 0.96, 0.24
60, 14100.98, 8003.20, -5430.56, -13632.19, -19165.44, -12681.73, -1721.22, -32954.88, 0.00, 0.00, 0.00
61, 14200.08, 8094.51, -5317.12, -13508.41, -19232.29, -12616.53, -1621.42, -32818.30, 0.00, 0.00, 0.00
62, 14278.09, 8167.35, -5230.93, -13425.06, -19152.47, -12547.40, -1533.84, -32732.50, 0.00, 0.00, 0.00
63, 14193.42, 8089.01, -5333.71, -13539.86, -19071.94, -12602.09, -1614.09, -32859.97, 0.00, 0.00, 0.00
64, 14101.96, 8003.24, -5442.20, -13648.24, -19145.72, -12686.07, -1716.14, -32969.61, 0.00, 0.00, 0.00
65, 14186.25, 8077.21, -5346.63, -13539.32, -19228.85, -12635.98, -1636.51, -32846.25, 0.00, 0.00, 0.00
66, 14285.80, 8169.43, -5229.73, -13424.37, -19168.83, -12548.34, -1530.63, -32730.20, 0.00, 0.00, 0.00
67, 14210.63, 8102.78, -5315.56, -13524.62, -19082.44, -12589.06, -1601.86, -32839.50, 0.00, 0.00, 0.00
68, 14112.18, 8013.79, -5432.73, -13642.48, -19118.09, -12672.86, -1712.72, -32959.68, 0.00, 0.00, 0.00
69, 14177.24, 8071.42, -5360.10, -13559.04, -19218.05, -12635.53, -1660.78, -32862.83, 0.02, 0.96, 0.23
70, 14281.09, 8166.28, -5235.47, -13434.09, -19197.04, -12545.72, -1547.93, -32729.97, 0.00, 0.00, 0.00
71, 14240.41, 8130.92, -5282.92, -13496.81, -19097.08, -12562.28, -1579.96, -32799.80, 0.00, 0.00, 0.00
72, 14118.77, 8019.47, -5426.58, -13645.67, -19120.06, -12655.69, -1706.24, -32954.56, 0.00, 0.00, 0.00
73, 14130.77, 8026.69, -5417.93, -13623.10, -19236.07, -12665.17, -1703.11, -32921.04, 0.00, 0.00, 0.00
74, 14256.68, 8140.35, -5275.44, -13473.32, -19228.00, -12568.32, -1569.14, -32755.92, 0.00, 0.00, 0.00
75, 14256.57, 8143.61, -5275.26, -13485.83, -19113.13, -12548.69, -1553.94, -32770.74, 0.00, 0.00, 0.00
76, 14135.87, 8030.89, -5417.64, -13637.13, -19102.05, -12639.42, -1676.51, -32931.02, 0.00, 0.00, 0.00
77, 14121.92, 8016.21, -5435.59, -13643.66, -19212.84, -12668.10, -1702.60, -32930.78, 0.00, 0.00, 0.00
78, 14249.71, 8131.59, -5287.91, -13486.62, -19229.32, -12569.82, -1571.26, -32757.87, 0.00, 0.00, 0.00
79, 14276.44, 8156.71, -5258.34, -13466.41, -19125.07, -12530.59, -1534.36, -32742.53, 0.02, 0.97, 0.23
80, 14159.72, 8051.05, -5395.08, -13611.63, -19077.95, -12607.17, -1646.68, -32896.78, 0.00, 0.00, 0.00
81, 14111.17, 8003.76, -5452.17, -13660.20, -19180.86, -12663.07, -1711.56, -32946.94, 0.00, 0.00, 0.00
82, 14220.49, 8102.57, -5320.88, -13519.25, -19244.56, -12586.85, -1600.97, -32792.18, 0.00, 0.00, 0.00
83, 14279.70, 8161.47, -5245.48, -13455.06, -19144.54, -12526.90, -1523.99, -32726.51, 0.00, 0.00, 0.00
84, 14175.99, 8065.85, -5366.05, -13590.53, -19080.99, -12594.13, -1621.04, -32871.10, 0.00, 0.00, 0.00
85, 14100.96, 7991.31, -5455.48, -13676.45, -19174.09, -12667.09, -1710.71, -32955.12, 0.00, 0.00, 0.00
86, 14210.55, 8088.20, -5332.81, -13542.25, -19240.54, -12596.15, -1607.29, -32808.25, 0.00, 0.00, 0.00
87, 14294.41, 8164.62, -5236.03, -13450.56, -19165.48, -12518.85, -1513.64, -32713.47, 0.00, 0.00, 0.00
88, 14204.78, 8083.33, -5341.08, -13569.65, -19091.56, -12575.11, -1599.60, -32843.52, 0.00, 0.00, 0.00
89, 14112.02, 7995.84, -5452.89, -13679.29, -19157.61, -12654.13, -1704.03, -32952.75, 0.02, 0.96, 0.23
90, 14180.93, 8058.18, -5373.45, -13584.85, -19249.41, -12608.53, -1638.34, -32837.55, 0.00, 0.00, 0.00
91, 14281.80, 8151.08, -5258.16, -13468.85, -19199.05, -12521.27, -1528.46, -32715.78, 0.00, 0.00, 0.00
92, 14212.69, 8088.16, -5341.19, -13561.94, -19105.78, -12557.08, -1589.92, -32819.60, 0.00, 0.00, 0.00
93, 14111.17, 7994.62, -5461.81, -13682.37, -19134.59, -12643.04, -1699.49, -32946.11, 0.00, 0.00, 0.00
94, 14156.45, 8036.88, -5406.69, -13615.25, -19246.08, -12619.37, -1659.04, -32869.63, 0.00, 0.00, 0.00
95, 14269.04, 8139.23, -5276.44, -13481.68, -19224.24, -12527.10, -1536.17, -32727.87, 0.00, 0.00, 0.00
96, 14239.49, 8111.38, -5309.41, -13530.36, -19120.24, -12537.90, -1556.22, -32786.48, 0.00, 0.00, 0.00
97, 14125.01, 8004.65, -5439.74, -13665.95, -19126.07, -12620.62, -1672.60, -32926.64, 0.00, 0.00, 0.00
98, 14138.22, 8016.63, -5426.27, -13639.21, -19232.29, -12628.09, -1669.72, -32893.32, 0.00, 0.00, 0.00
99, 14261.40, 8128.46, -5286.41, -13490.80, -19228.51, -12534.63, -1538.67, -32733.77, 0.02, 0.96, 0.23
100, 14247.22, 8116.95, -5300.22, -13513.71, -19128.94, -12528.60, -1537.26, -32760.32, 0.00, 0.00, 0.00
101, 14129.01, 8008.50, -5436.99, -13660.27, -19107.99, -12613.04, -1652.93, -32913.08, 0.00, 0.00, 0.00
102, 14120.13, 7996.78, -5453.11, -13669.08, -19207.79, -12639.02, -1675.67, -32913.21, 0.00, 0.00, 0.00
103, 14228.92, 8092.85, -5324.23, -13530.94, -19241.54, -12556.25, -1564.22, -32762.27, 0.00, 0.00, 0.00
104, 14257.48, 8123.52, -5292.27, -13506.09, -19147.62, -12522.32, -1528.70, -32744.52, 0.00, 0.00, 0.00
105, 14153.64, 8029.75, -5419.18, -13639.79, -19093.37, -12593.44, -1634.23, -32892.22, 0.00, 0.00, 0.00
106, 14109.29, 7986.23, -5473.43, -13686.49, -19178.06, -12645.99, -1694.46, -32937.17, 0.00, 0.00, 0.00
107, 14220.38, 8088.78, -5341.46, -13546.90, -19241.14, -12570.24, -1585.72, -32783.95, 0.00, 0.00, 0.00
108, 14276.68, 8138.58, -5278.63, -13494.13, -19165.66, -12516.42, -1524.66, -32727.36, 0.00, 0.00, 0.00
109, 14176.68, 8044.86, -5398.73, -13629.07, -19100.19, -12582.06, -1621.37, -32868.62, 0.02, 0.97, 0.23
110, 14103.53, 7976.85, -5487.89, -13713.53, -19180.57, -12650.10, -1706.02, -32951.59, 0.00, 0.00, 0.00
111, 14204.06, 8066.99, -5375.91, -13590.26, -19249.57, -12586.13, -1611.09, -32815.54, 0.00, 0.00, 0.00
112, 14287.55, 8143.77, -5280.73, -13498.17, -19182.78, -12512.26, -1517.50, -32719.58, 0.00, 0.00, 0.00
113, 14205.65, 8070.50, -5375.71, -13604.39, -19100.08, -12555.33, -1589.52, -32835.36, 0.00, 0.00, 0.00
114, 14113.47, 7986.75, -5489.57, -13715.97, -19160.56, -12637.99, -1697.53, -32950.70, 0.00, 0.00, 0.00
115, 14172.19, 8039.16, -5421.82, -13636.35, -19260.63, -12609.45, -1648.13, -32860.39, 0.00, 0.00, 0.00
116, 14275.39, 8134.81, -5302.10, -13516.52, -19217.52, -12525.49, -1537.44, -32736.86, 0.00, 0.00, 0.00
117, 14222.79, 8088.38, -5364.40, -13590.40, -19120.29, -12550.30, -1581.03, -32817.86, 0.00, 0.00, 0.00
118, 14109.69, 7983.73, -5501.28, -13728.33, -19157.54, -12643.42, -1704.86, -32960.48, 0.02, 0.96, 0.23
119, 14152.03, 8020.41, -5456.78, -13667.71, -19254.39, -12624.04, -1672.04, -32889.41, 0.00, 0.00, 0.00
120, 14269.42, 8128.95, -5317.79, -13523.79, -19221.87, -12524.67, -1544.59, -32734.91, 0.00, 0.00, 0.00
121, 14251.76, 8114.49, -5338.56, -13559.26, -19126.74, -12525.07, -1557.20, -32777.60, 0.00, 0.00, 0.00
122, 14125.47, 7998.44, -5483.04, -13707.25, -19135.26, -12614.92, -1682.10, -32937.02, 0.00, 0.00, 0.00
123, 14118.34, 7987.44, -5493.48, -13704.84, -19254.73, -12640.87, -1696.92, -32925.84, 0.00, 0.00, 0.00
124, 14246.64, 8107.11, -5345.67, -13548.73, -19257.05, -12547.96, -1561.54, -32759.19, 0.00, 0.00, 0.00
125, 14254.11, 8116.68, -5336.34, -13551.88, -19151.89, -12532.58, -1547.46, -32773.71, 0.00, 0.00, 0.00
126, 14142.75, 8016.01, -5467.08, -13694.06, -19124.58, -12615.46, -1663.73, -32924.83, 0.00, 0.00, 0.00
127, 14120.63, 7997.52, -5491.51, -13708.46, -19219.86, -12639.64, -1692.05, -32926.55, 0.00, 0.00, 0.00
128, 14241.10, 8108.36, -5352.95, -13560.78, -19251.42, -12545.77, -1568.04, -32762.45, 0.02, 0.96, 0.23
129, 14271.59, 8137.24, -5319.71, -13537.07, -19161.70, -12508.55, -1529.26, -32736.83, 0.00, 0.00, 0.00
130, 14155.83, 8029.93, -5456.11, -13687.40, -19108.60, -12594.92, -1644.62, -32896.22, 0.00, 0.00, 0.00
131, 14110.21, 7986.86, -5512.43, -13739.21, -19201.82, -12650.66, -1708.12, -32947.16, 0.00, 0.00, 0.00
132, 14210.95, 8077.85, -5393.72, -13611.41, -19278.02, -12581.17, -1609.64, -32807.24, 0.00, 0.00, 0.00
133, 14277.02, 8140.66, -5316.79, -13539.61, -19198.45, -12519.82, -1536.01, -32737.97, 0.00, 0.00, 0.00
134, 14183.59, 8057.60, -5425.57, -13660.29, -19124.58, -12575.38, -1625.17, -32872.57, 0.00, 0.00, 0.00
135, 14101.00, 7981.05, -5524.26, -13754.82, -19204.08, -12653.01, -1719.34, -32966.77, 0.00, 0.00, 0.00
136, 14182.47, 8054.27, -5427.70, -13645.40, -19287.90, -12598.94, -1637.04, -32843.77, 0.00, 0.00, 0.00
137, 14289.49, 8155.55, -5304.85, -13527.30, -19210.52, -12508.01, -1517.62, -32719.09, 0.00, 0.00, 0.00
138, 14213.45, 8086.59, -5399.13, -13633.92, -19121.92, -12552.49, -1585.79, -32832.83, 0.02, 0.97, 0.23
139, 14100.28, 7980.33, -5535.70, -13767.69, -19188.14, -12650.35, -1710.15, -32969.31, 0.00, 0.00, 0.00
140, 14163.00, 8036.64, -5466.70, -13684.14, -19284.46, -12618.05, -1656.69, -32873.67, 0.00, 0.00, 0.00
141, 14283.64, 8145.91, -5332.17, -13547.48, -19233.90, -12517.92, -1529.35, -32727.02, 0.00, 0.00, 0.00
142, 14230.10, 8098.55, -5391.93, -13618.94, -19134.86, -12537.54, -1569.85, -32806.55, 0.00, 0.00, 0.00
143, 14110.86, 7991.44, -5529.93, -13755.71, -19162.98, -12625.90, -1694.80, -32952.89, 0.00, 0.00, 0.00
144, 14141.37, 8018.20, -5493.81, -13706.85, -19270.24, -12618.32, -1676.60, -32897.23, 0.00, 0.00, 0.00
145, 14266.58, 8134.16, -5349.71, -13558.32, -19246.44, -12517.07, -1543.01, -32741.71, 0.00, 0.00, 0.00
146, 14245.41, 8115.67, -5374.68, -13596.21, -19138.08, -12522.36, -1556.75, -32783.46, 0.00, 0.00, 0.00
147, 14131.85, 8012.50, -5508.52, -13736.13, -19146.86, -12610.23, -1676.13, -32929.50, 0.00, 0.00, 0.00
148, 14129.32, 8008.63, -5515.11, -13731.86, -19261.26, -12631.73, -1691.33, -32919.98, 0.02, 0.96, 0.23
149, 14250.64, 8116.50, -5374.88, -13585.48, -19274.33, -12541.45, -1565.47, -32760.41, 0.00, 0.00, 0.00
150, 14258.31, 8124.99, -5363.79, -13587.40, -19175.72, -12522.05, -1546.81, -32765.71, 0.00, 0.00, 0.00
151, 14141.68, 8016.43, -5499.96, -13733.25, -19146.62, -12605.56, -1661.56, -32921.26, 0.00, 0.00, 0.00
152, 14115.55, 7992.09, -5532.59, -13758.48, -19243.64, -12642.48, -1698.91, -32939.70, 0.00, 0.00, 0.00
153, 14233.17, 8099.60, -5396.02, -13613.96, -19278.89, -12556.11, -1579.60, -32781.56, 0.00, 0.00, 0.00
154, 14277.42, 8140.97, -5341.80, -13571.04, -19182.51, -12506.76, -1525.98, -32737.82, 0.00, 0.00, 0.00
155, 14175.10, 8047.39, -5459.93, -13701.89, -19120.87, -12574.82, -1626.07, -32881.09, 0.00, 0.00, 0.00
156, 14116.06, 7991.26, -5532.30, -13768.61, -19211.03, -12634.93, -1700.79, -32946.52, 0.00, 0.00, 0.00
157, 14224.38, 8090.53, -5409.77, -13631.77, -19269.17, -12560.79, -1594.17, -32795.84, 0.00, 0.00, 0.00
158, 14293.60, 8155.99, -5335.34, -13556.89, -19184.08, -12495.07, -1516.83, -32721.75, 0.02, 0.96, 0.23
159, 14201.45, 8074.81, -5444.21, -13676.96, -19116.78, -12554.55, -1605.95, -32854.14, 0.00, 0.00, 0.00
160, 14103.35, 7982.59, -5560.60, -13786.82, -19204.60, -12640.89, -1711.54, -32967.95, 0.00, 0.00, 0.00
161, 14173.15, 8043.52, -5480.58, -13692.57, -19299.84, -12602.47, -1642.76, -32855.59, 0.00, 0.00, 0.00
162, 14272.53, 8135.86, -5360.95, -13576.76, -19235.06, -12515.39, -1530.58, -32730.53, 0.00, 0.00, 0.00
163, 14206.50, 8075.82, -5436.88, -13666.68, -19138.77, -12547.33, -1586.68, -32832.68, 0.00, 0.00, 0.00
164, 14111.53, 7987.80, -5550.65, -13782.80, -19180.63, -12628.18, -1692.56, -32949.80, 0.00, 0.00, 0.00
165, 14167.74, 8039.81, -5485.77, -13706.69, -19275.52, -12601.76, -1646.30, -32866.81, 0.00, 0.00, 0.00
166, 14274.18, 8137.93, -5357.69, -13574.50, -19241.95, -12512.04, -1528.79, -32727.65, 0.00, 0.00, 0.00
167, 14236.67, 8107.11, -5403.78, -13630.00, -19137.83, -12522.16, -1558.90, -32788.55, 0.00, 0.00, 0.00
168, 14122.30, 8000.56, -5542.16, -13770.15, -19159.38, -12608.42, -1679.76, -32936.55, 0.02, 0.96, 0.22
169, 14140.74, 8016.54, -5519.61, -13736.51, -19270.02, -12612.69, -1669.00, -32894.91, 0.00, 0.00, 0.00
170, 14260.50, 8126.04, -5377.32, -13589.37, -19261.79, -12523.64, -1541.38, -32740.99, 0.00, 0.00, 0.00
171, 14251.16, 8116.63, -5390.86, -13612.86, -19150.01, -12518.47, -1540.95, -32772.64, 0.00, 0.00, 0.00
172, 14129.92, 8003.69, -5531.65, -13763.06, -19138.44, -12606.70, -1667.35, -32934.45, 0.00, 0.00, 0.00
173, 14117.83, 7991.82, -5545.20, -13765.70, -19264.74, -12633.72, -1693.79, -32932.10, 0.00, 0.00, 0.00
174, 14245.08, 8108.79, -5399.44, -13609.42, -19279.47, -12538.05, -1564.89, -32765.02, 0.00, 0.00, 0.00
175, 14262.45, 8128.14, -5381.76, -13600.41, -19181.42, -12509.78, -1538.92, -32761.69, 0.00, 0.00, 0.00
176, 14150.84, 8026.13, -5514.20, -13741.20, -19141.74, -12586.02, -1647.70, -32909.79, 0.00, 0.00, 0.00
177, 14108.46, 7984.11, -5564.94, -13784.14, -19242.30, -12634.03, -1699.34, -32946.63, 0.00, 0.00, 0.00
178, 14222.88, 8085.72, -5435.43, -13646.90, -19292.37, -12556.85, -1588.52, -32791.59, 0.03, 0.96, 0.23
179, 14282.34, 8144.44, -5365.83, -13588.83, -19190.76, -12494.94, -1517.28, -32728.45, 0.00, 0.00, 0.00
180, 14173.44, 8045.02, -5489.86, -13726.99, -19131.33, -12565.59, -1617.73, -32875.39, 0.00, 0.00, 0.00
181, 14105.92, 7979.73, -5567.44, -13802.76, -19217.40, -12628.94, -1693.68, -32948.91, 0.00, 0.00, 0.00
182, 14203.17, 8066.92, -5456.87, -13679.54, -19290.81, -12561.86, -1601.06, -32811.49, 0.00, 0.00, 0.00
183, 14281.71, 8140.82, -5366.63, -13591.22, -19215.21, -12492.55, -1514.71, -32721.59, 0.00, 0.00, 0.00
184, 14198.48, 8066.36, -5470.32, -13702.49, -19127.77, -12542.61, -1593.17, -32838.94, 0.00, 0.00, 0.00
185, 14101.76, 7978.14, -5586.91, -13814.52, -19190.58, -12625.92, -1702.53, -32951.36, 0.00, 0.00, 0.00
186, 14177.96, 8046.92, -5502.10, -13715.72, -19295.19, -12585.89, -1641.02, -32846.60, 0.00, 0.00, 0.00
187, 14282.41, 8141.58, -5383.89, -13596.43, -19243.94, -12494.27, -1529.06, -32721.52, 0.00, 0.00, 0.00
188, 14210.70, 8077.70, -5465.58, -13689.33, -19154.64, -12526.36, -1591.35, -32825.68, 0.03, 0.96, 0.22
189, 14110.01, 7984.31, -5581.59, -13805.91, -19192.50, -12612.49, -1701.10, -32949.73, 0.00, 0.00, 0.00
190, 14162.58, 8030.80, -5521.26, -13731.08, -19288.64, -12585.02, -1656.04, -32866.54, 0.00, 0.00, 0.00
191, 14273.13, 8130.54, -5390.88, -13598.85, -19261.53, -12499.07, -1537.89, -32731.16, 0.00, 0.00, 0.00
192, 14236.83, 8097.97, -5432.79, -13655.64, -19162.20, -12514.09, -1564.44, -32797.25, 0.00, 0.00, 0.00
193, 14123.13, 7996.29, -5566.68, -13794.47, -19174.60, -12608.66, -1682.06, -32946.56, 0.00, 0.00, 0.00
194, 14141.17, 8010.06, -5548.60, -13765.63, -19284.06, -12619.35, -1675.51, -32907.60, 0.00, 0.00, 0.00
195, 14269.55, 8125.66, -5400.36, -13613.15, -19275.27, -12521.13, -1541.53, -32740.97, 0.00, 0.00, 0.00
196, 14271.10, 8129.40, -5401.75, -13623.97, -19158.64, -12500.53, -1527.59, -32759.12, 0.00, 0.00, 0.00
197, 14146.71, 8014.91, -5544.22, -13776.36, -19137.29, -12588.86, -1655.01, -32924.68, 0.00, 0.00, 0.00
198, 14131.13, 7997.23, -5561.83, -13788.59, -19262.98, -12622.95, -1690.37, -32929.13, 0.03, 0.97, 0.23
199, 14257.82, 8113.93, -5414.78, -13631.03, -19289.51, -12522.72, -1557.27, -32758.31, 0.00, 0.00, 0.00
200, 14279.21, 8136.77, -5388.36, -13614.27, -19196.44, -12491.96, -1524.97, -32745.73, 0.00, 0.00, 0.00
201, 14158.29, 8028.21, -5525.40, -13763.15, -19156.43, -12579.65, -1643.72, -32905.59, 0.00, 0.00, 0.00
202, 14112.29, 7986.35, -5579.60, -13810.38, -19256.00, -12627.30, -1703.40, -32943.32, 0.00, 0.00, 0.00
203, 14236.63, 8099.56, -5435.92, -13658.12, -19296.73, -12539.93, -1580.92, -32775.82, 0.00, 0.00, 0.00
204, 14286.41, 8147.48, -5373.54, -13602.94, -19209.94, -12482.76, -1518.82, -32721.07, 0.00, 0.00, 0.00
205, 14180.57, 8052.73, -5496.23, -13736.89, -19147.42, -12550.33, -1616.46, -32868.15, 0.00, 0.00, 0.00
206, 14093.13, 7971.17, -5595.13, -13831.06, -19238.06, -12628.51, -1708.81, -32961.69, 0.00, 0.00, 0.00
207, 14183.77, 8054.29, -5485.72, -13710.74, -19308.44, -12566.78, -1614.71, -32825.64, 0.03, 0.97, 0.23
208, 14281.07, 8148.13, -5372.76, -13602.42, -19214.77, -12477.06, -1506.19, -32713.88, 0.00, 0.00, 0.00
209, 14206.08, 8081.41, -5456.19, -13705.91, -19126.03, -12517.07, -1577.23, -32828.09, 0.00, 0.00, 0.00
210, 14103.50, 7988.80, -5569.18, -13824.80, -19196.59, -12600.82, -1688.58, -32948.28, 0.00, 0.00, 0.00
211, 14166.38, 8048.30, -5489.90, -13737.56, -19287.32, -12563.54, -1630.38, -32848.37, 0.00, 0.00, 0.00
212, 14268.53, 8144.82, -5364.96, -13619.21, -19239.46, -12480.05, -1521.15, -32725.72, 0.00, 0.00, 0.00
213, 14205.83, 8090.06, -5437.62, -13705.69, -19150.73, -12509.58, -1578.93, -32822.71, 0.00, 0.00, 0.00
214, 14114.03, 8008.05, -5550.21, -13820.46, -19170.38, -12582.47, -1678.46, -32940.73, 0.00, 0.00, 0.00
215, 14150.33, 8043.27, -5507.18, -13766.86, -19275.41, -12566.98, -1652.62, -32875.77, 0.00, 0.00, 0.00
216, 14264.28, 8151.55, -5371.55, -13631.72, -19254.60, -12474.33, -1531.72, -32730.08, 0.00, 0.00, 0.00
217, 14234.46, 8130.69, -5406.26, -13681.41, -19155.89, -12483.72, -1555.14, -32788.62, 0.02, 0.96, 0.23
218, 14120.40, 8029.95, -5542.25, -13823.88, -19161.77, -12572.21, -1676.60, -32939.81, 0.00, 0.00, 0.00
219, 14126.95, 8036.52, -5538.18, -13809.35, -19265.57, -12584.50, -1683.87, -32919.38, 0.00, 0.00, 0.00
220, 14248.88, 8151.64, -5392.34, -13661.86, -19278.40, -12493.10, -1561.74, -32758.98, 0.00, 0.00, 0.00
221, 14261.78, 8168.96, -5376.51, -13661.59, -19178.33, -12469.70, -1541.67, -32762.31, 0.00, 0.00, 0.00
222, 14145.93, 8065.43, -5510.29, -13804.35, -19150.77, -12547.55, -1655.73, -32911.00, 0.00, 0.00, 0.00
223, 14119.51, 8042.36, -5542.74, -13828.06, -19257.28, -12589.17, -1697.01, -32933.84, 0.00, 0.00, 0.00
224, 14233.66, 8147.90, -5411.04, -13688.88, -19290.02, -12503.05, -1580.18, -32773.07, 0.00, 0.00, 0.00
225, 14268.35, 8181.45, -5373.38, -13660.47, -19190.34, -12462.50, -1534.65, -32738.13, 0.00, 0.00, 0.00
226, 14155.52, 8081.14, -5505.08, -13801.02, -19138.88, -12537.14, -1640.82, -32888.31, 0.00, 0.00, 0.00
227, 14097.71, 8028.43, -5572.98, -13860.88, -19234.73, -12595.23, -1709.01, -32947.05, 0.02, 0.96, 0.23
228, 14202.63, 8122.24, -5449.47, -13728.35, -19291.88, -12526.30, -1605.59, -32801.95, 0.00, 0.00, 0.00
229, 14270.11, 8186.93, -5368.87, -13655.15, -19201.98, -12460.05, -1526.42, -32730.48, 0.00, 0.00, 0.00
230, 14176.37, 8103.51, -5474.93, -13775.09, -19126.77, -12513.38, -1610.02, -32859.93, 0.00, 0.00, 0.00
231, 14091.05, 8023.05, -5573.25, -13869.97, -19207.86, -12590.42, -1705.24, -32956.75, 0.00, 0.00, 0.00
232, 14181.31, 8106.46, -5472.13, -13752.96, -19287.86, -12537.70, -1623.76, -32829.91, 0.00, 0.00, 0.00
233, 14279.81, 8200.72, -5359.99, -13640.35, -19210.18, -12449.50, -1518.82, -32717.37, 0.00, 0.00, 0.00
234, 14188.44, 8117.39, -5463.88, -13757.45, -19126.34, -12503.74, -1603.92, -32844.86, 0.00, 0.00, 0.00
235, 14093.85, 8029.15, -5576.63, -13871.87, -19191.74, -12582.06, -1710.80, -32961.87, 0.00, 0.00, 0.00
236, 14151.13, 8077.88, -5512.48, -13794.13, -19297.09, -12553.32, -1661.07, -32873.54, 0.00, 0.00, 0.00
237, 14264.28, 8181.14, -5383.73, -13663.46, -19249.63, -12462.30, -1536.91, -32734.58, 0.02, 0.96, 0.23
238, 14221.21, 8142.58, -5437.26, -13729.92, -19143.62, -12473.82, -1568.87, -32797.07, 0.00, 0.00, 0.00
239, 14108.04, 8039.07, -5569.72, -13865.77, -19173.55, -12562.89, -1685.75, -32938.09, 0.00, 0.00, 0.00
240, 14135.31, 8061.51, -5539.59, -13824.44, -19288.55, -12559.58, -1669.41, -32885.27, 0.00, 0.00, 0.00
241, 14260.70, 8177.88, -5395.22, -13676.27, -19268.30, -12460.56, -1537.15, -32725.41, 0.00, 0.00, 0.00
242, 14242.24, 8163.50, -5417.71, -13712.26, -19161.90, -12461.43, -1545.58, -32768.02, 0.00, 0.00, 0.00
243, 14111.53, 8042.85, -5566.99, -13868.41, -19172.50, -12561.70, -1680.05, -32934.38, 0.00, 0.00, 0.00
244, 14113.49, 8045.09, -5567.98, -13856.00, -19279.32, -12570.67, -1691.78, -32911.91, 0.00, 0.00, 0.00
245, 14238.26, 8158.99, -5424.59, -13707.45, -19291.30, -12478.98, -1568.76, -32751.90, 0.00, 0.00, 0.00
246, 14258.36, 8180.34, -5401.86, -13695.85, -19177.08, -12448.83, -1539.88, -32744.54, 0.00, 0.00, 0.00
247, 14138.17, 8069.49, -5543.70, -13846.77, -19145.63, -12531.37, -1656.49, -32902.71, 0.02, 0.95, 0.24
248, 14103.66, 8035.70, -5589.48, -13883.09, -19244.99, -12573.91, -1704.86, -32932.05, 0.00, 0.00, 0.00
249, 14218.01, 8137.55, -5452.42, -13737.65, -19290.09, -12486.29, -1585.10, -32775.64, 0.00, 0.00, 0.00
250, 14253.71, 8170.26, -5410.06, -13702.78, -19204.33, -12446.39, -1533.69, -32741.42, 0.00, 0.00, 0.00
251, 14146.89, 8072.76, -5539.12, -13841.63, -19156.00, -12523.70, -1641.31, -32892.91, 0.00, 0.00, 0.00
252, 14091.28, 8023.78, -5605.06, -13900.28, -19245.88, -12583.05, -1711.27, -32952.10, 0.00, 0.00, 0.00
253, 14189.74, 8113.73, -5487.22, -13768.58, -19310.48, -12511.99, -1611.40, -32807.98, 0.00, 0.00, 0.00
254, 14262.11, 8180.98, -5400.87, -13688.48, -19226.99, -12438.39, -1527.63, -32725.79, 0.00, 0.00, 0.00
255, 14175.95, 8104.05, -5502.82, -13802.09, -19145.47, -12490.31, -1609.82, -32851.21, 0.00, 0.00, 0.00
0, 14088.53, 8020.61, -5608.54, -13903.37, -19225.14, -12572.43, -1710.36, -32950.74, 0.00, 0.00, 0.00
1, 14179.01, 8101.70, -5506.71, -13786.47, -19294.58, -12516.24, -1624.32, -32822.02, 0.02, 0.95, 0.24
2, 14264.82, 8179.58, -5403.22, -13686.73, -19231.46, -12440.38, -1530.02, -32722.75, 0.00, 0.00, 0.00
3, 14185.96, 8107.63, -5492.67, -13792.34, -19166.98, -12489.86, -1606.13, -32841.21, 0.00, 0.00, 0.00
4, 14084.30, 8013.44, -5611.92, -13912.04, -19217.87, -12575.29, -1713.64, -32962.50, 0.00, 0.00, 0.00
5, 14141.48, 8056.93, -5548.95, -13837.90, -19317.81, -12548.51, -1661.76, -32870.83, 0.00, 0.00, 0.00
6, 14265.29, 8157.09, -5421.24, -13713.17, -19283.92, -12468.67, -1547.08, -32739.63, 0.00, 0.00, 0.00
7, 14250.18, 8149.92, -5458.88, -13762.77, -19171.02, -12474.69, -1568.80, -32800.11, 0.00, 0.00, 0.00
8, 14126.73, 8054.76, -5587.02, -13889.87, -19182.42, -12547.35, -1675.17, -32931.67, 0.00, 0.00, 0.00
9, 14135.20, 8061.11, -5556.35, -13849.19, -19285.96, -12541.29, -1658.59, -32878.19, 0.00, 0.00, 0.00
10, 14241.50, 8156.33, -5421.71, -13710.65, -19276.57, -12449.97, -1539.19, -32730.17, 0.00, 0.00, 0.00
11, 14225.43, 8147.46, -5439.83, -13740.24, -19180.46, -12449.90, -1551.59, -32770.79, 0.02, 0.96, 0.23
12, 14111.77, 8049.00, -5570.05, -13876.48, -19173.24, -12533.41, -1670.95, -32919.43, 0.00, 0.00, 0.00
13, 14090.29, 8024.72, -5585.61, -13880.57, -19287.43, -12557.70, -1695.29, -32914.26, 0.00, 0.00, 0.00
14, 14217.81, 8137.15, -5439.45, -13728.15, -19299.43, -12461.14, -1564.15, -32749.33, 0.00, 0.00, 0.00
15, 14230.28, 8151.99, -5430.40, -13725.25, -19204.28, -12437.43, -1544.77, -32755.38, 0.00, 0.00, 0.00
16, 14123.51, 8056.37, -5564.02, -13864.99, -19166.53, -12515.41, -1655.19, -32905.66, 0.00, 0.00, 0.00
17, 14091.10, 8025.68, -5609.97, -13899.52, -19255.89, -12555.33, -1694.49, -32928.19, 0.00, 0.00, 0.00
18, 14208.22, 8132.37, -5473.96, -13753.16, -19281.51, -12470.57, -1570.59, -32766.23, 0.00, 0.00, 0.00
19, 14267.65, 8188.85, -5403.02, -13694.82, -19188.10, -12412.30, -1502.93, -32712.40, 0.00, 0.00, 0.00
20, 14156.57, 8089.99, -5528.19, -13831.95, -19138.52, -12482.13, -1609.35, -32864.71, 0.00, 0.00, 0.00
21, 14089.11, 8027.92, -5603.11, -13900.82, -19228.94, -12541.54, -1689.72, -32932.59, 0.02, 0.96, 0.23
22, 14188.24, 8115.65, -5487.08, -13773.05, -19297.65, -12474.08, -1598.31, -32794.86, 0.00, 0.00, 0.00
23, 14262.78, 8182.62, -5401.90, -13693.97, -19223.42, -12406.94, -1520.19, -32717.61, 0.00, 0.00, 0.00
24, 14173.62, 8103.13, -5506.40, -13811.03, -19143.93, -12458.55, -1602.37, -32840.68, 0.00, 0.00, 0.00
25, 14079.36, 8016.43, -5617.48, -13921.72, -19219.73, -12542.66, -1706.47, -32947.57, 0.00, 0.00, 0.00
26, 14153.71, 8082.14, -5533.04, -13824.82, -19307.35, -12502.00, -1636.68, -32837.21, 0.00, 0.00, 0.00
27, 14256.01, 8174.12, -5412.65, -13707.41, -19243.15, -12417.13, -1521.13, -32714.04, 0.00, 0.00, 0.00
28, 14195.35, 8120.86, -5486.06, -13793.53, -19147.87, -12451.89, -1574.46, -32810.75, 0.00, 0.00, 0.00
29, 14095.23, 8027.67, -5613.91, -13919.66, -19182.27, -12541.45, -1687.13, -32943.79, 0.00, 0.00, 0.00
30, 14141.70, 8067.10, -5557.43, -13854.15, -19286.74, -12523.73, -1651.15, -32869.29, 0.02, 0.96, 0.23
31, 14253.93, 8169.50, -5422.02, -13718.47, -19261.26, -12430.50, -1528.10, -32724.65, 0.00, 0.00, 0.00
32, 14225.05, 8147.93, -5456.69, -13764.65, -19151.02, -12431.64, -1546.90, -32777.69, 0.00, 0.00, 0.00
33, 14106.36, 8038.34, -5597.75, -13907.97, -19166.71, -12519.50, -1673.72, -32928.14, 0.00, 0.00, 0.00
34, 14121.50, 8048.84, -5583.94, -13882.71, -19277.60, -12525.72, -1678.03, -32896.78, 0.00, 0.00, 0.00
35, 14242.51, 8158.14, -5442.23, -13736.17, -19271.92, -12427.84, -1553.27, -32740.88, 0.00, 0.00, 0.00
36, 14242.73, 8160.06, -5445.47, -13749.36, -19163.74, -12413.26, -1544.42, -32760.19, 0.00, 0.00, 0.00
37, 14119.24, 8045.73, -5591.06, -13899.39, -19155.91, -12504.33, -1666.59, -32917.79, 0.00, 0.00, 0.00
38, 14115.71, 8042.25, -5596.83, -13891.54, -19253.32, -12522.14, -1679.60, -32900.63, 0.00, 0.00, 0.00
39, 14228.32, 8144.22, -5462.23, -13746.77, -19275.94, -12431.57, -1557.07, -32741.75, 0.00, 0.00, 0.00
40, 14248.70, 8162.48, -5440.88, -13735.17, -19184.30, -12408.39, -1524.66, -32734.11, 0.02, 0.96, 0.23
41, 14130.79, 8053.53, -5582.75, -13883.43, -19146.95, -12494.98, -1638.27, -32890.90, 0.00, 0.00, 0.00
42, 14094.52, 8019.90, -5630.05, -13923.44, -19228.22, -12535.68, -1686.93, -32924.75, 0.00, 0.00, 0.00
43, 14209.05, 8122.98, -5496.03, -13779.04, -19284.15, -12449.56, -1572.24, -32764.39, 0.00, 0.00, 0.00
44, 14272.57, 8183.93, -5426.78, -13717.11, -19191.25, -12387.72, -1498.51, -32700.29, 0.00, 0.00, 0.00
45, 14165.62, 8085.32, -5556.00, -13856.16, -19135.02, -12460.27, -1605.70, -32851.79, 0.00, 0.00, 0.00
46, 14095.99, 8022.22, -5637.49, -13932.83, -19219.28, -12524.69, -1686.42, -32925.21, 0.00, 0.00, 0.00
47, 14198.25, 8115.09, -5520.79, -13802.13, -19280.86, -12451.02, -1586.35, -32780.60, 0.00, 0.00, 0.00
48, 14276.55, 8188.38, -5429.82, -13711.66, -19205.40, -12376.74, -1500.49, -32692.71, 0.00, 0.00, 0.00
49, 14180.75, 8103.42, -5537.29, -13829.16, -19134.30, -12436.20, -1586.12, -32820.65, 0.00, 0.00, 0.00
50, 14101.02, 8028.05, -5631.79, -13923.95, -19187.18, -12506.25, -1673.34, -32918.93, 0.02, 0.97, 0.23
51, 14161.80, 8079.89, -5558.74, -13842.26, -19284.39, -12474.24, -1616.05, -32821.12, 0.00, 0.00, 0.00
52, 14263.21, 8171.37, -5437.75, -13725.92, -19235.44, -12388.90, -1505.30, -32694.59, 0.00, 0.00, 0.00
53, 14204.73, 8118.69, -5505.08, -13807.21, -19135.53, -12416.15, -1552.06, -32784.40, 0.00, 0.00, 0.00
54, 14094.47, 8015.27, -5635.75, -13938.19, -19172.23, -12504.82, -1667.15, -32922.31, 0.00, 0.00, 0.00
55, 14128.67, 8043.59, -5598.20, -13888.26, -19277.66, -12500.93, -1641.65, -32863.59, 0.00, 0.00, 0.00
56, 14250.31, 8154.12, -5456.37, -13744.00, -19233.72, -12400.48, -1509.61, -32699.93, 0.00, 0.00, 0.00
57, 14219.78, 8128.52, -5491.44, -13793.24, -19144.11, -12406.65, -1534.65, -32757.58, 0.00, 0.00, 0.00
58, 14097.42, 8013.79, -5632.35, -13941.83, -19159.65, -12500.53, -1659.04, -32914.11, 0.00, 0.00, 0.00
59, 14099.64, 8014.13, -5626.98, -13927.77, -19272.05, -12518.65, -1665.65, -32892.42, 0.00, 0.00, 0.00
60, 14226.33, 8128.48, -5483.64, -13776.79, -19270.42, -12426.27, -1538.18, -32731.45, 0.02, 0.96, 0.23
61, 14226.19, 8129.33, -5484.65, -13788.03, -19164.97, -12409.78, -1524.75, -32747.41, 0.00, 0.00, 0.00
62, 14113.58, 8028.88, -5614.91, -13924.33, -19142.12, -12487.96, -1634.16, -32893.68, 0.00, 0.00, 0.00
63, 14102.03, 8019.34, -5630.38, -13928.47, -19236.76, -12511.25, -1657.54, -32895.78, 0.00, 0.00, 0.00
64, 14214.05, 8121.33, -5499.67, -13788.10, -19266.80, -12428.44, -1543.63, -32744.50, 0.00, 0.00, 0.00
65, 14250.26, 8157.78, -5457.80, -13754.44, -19166.71, -12385.82, -1498.21, -32714.84, 0.00, 0.00, 0.00
66, 14138.80, 8055.05, -5586.21, -13893.96, -19119.55, -12460.14, -1608.59, -32868.93, 0.00, 0.00, 0.00
67, 14083.59, 8004.25, -5653.63, -13953.23, -19220.78, -12519.68, -1678.66, -32925.53, 0.00, 0.00, 0.00
68, 14193.87, 8101.93, -5526.71, -13814.74, -19274.38, -12445.09, -1570.86, -32776.84, 0.00, 0.00, 0.00
69, 14260.37, 8163.82, -5449.96, -13744.51, -19185.26, -12379.94, -1495.06, -32704.80, 0.00, 0.00, 0.00
70, 14147.74, 8061.58, -5578.59, -13884.99, -19122.36, -12456.87, -1601.30, -32860.77, 0.02, 0.96, 0.23
71, 14075.85, 7993.14, -5662.68, -13967.54, -19200.86, -12530.14, -1686.08, -32941.42, 0.00, 0.00, 0.00
72, 14180.59, 8088.29, -5541.87, -13840.18, -19275.41, -12464.32, -1586.10, -32801.79, 0.00, 0.00, 0.00
73, 14261.78, 8159.97, -5445.49, -13751.84, -19215.32, -12397.91, -1496.49, -32710.97, 0.00, 0.00, 0.00
74, 14184.98, 8089.68, -5535.16, -13855.35, -19128.96, -12444.56, -1566.05, -32826.15, 0.00, 0.00, 0.00
75, 14088.82, 8000.94, -5649.34, -13970.15, -19184.66, -12526.30, -1673.81, -32938.91, 0.00, 0.00, 0.00
76, 14151.76, 8055.93, -5578.59, -13889.87, -19279.97, -12491.85, -1621.48, -32842.42, 0.00, 0.00, 0.00
77, 14263.21, 8156.53, -5447.03, -13761.61, -19229.45, -12399.12, -1503.24, -32708.80, 0.00, 0.00, 0.00
78, 14205.23, 8104.05, -5507.89, -13836.78, -19133.07, -12424.73, -1550.16, -32795.21, 0.00, 0.00, 0.00
79, 14098.88, 8007.80, -5635.39, -13963.45, -19162.75, -12511.81, -1667.40, -32932.03, 0.00, 0.00, 0.00
80, 14123.91, 8028.19, -5607.65, -13918.05, -19274.96, -12505.31, -1651.21, -32877.22, 0.02, 0.96, 0.23
81, 14234.98, 8126.89, -5478.55, -13782.49, -19264.07, -12414.76, -1534.45, -32731.51, 0.00, 0.00, 0.00
82, 14219.04, 8111.74, -5501.43, -13817.56, -19161.46, -12410.92, -1544.21, -32772.62, 0.00, 0.00, 0.00
83, 14111.64, 8014.20, -5630.67, -13949.97, -19150.55, -12488.34, -1650.68, -32910.02, 0.00, 0.00, 0.00
84, 14110.46, 8012.23, -5635.34, -13940.36, -19250.44, -12507.05, -1654.72, -32888.45, 0.00, 0.00, 0.00
85, 14225.39, 8116.88, -5498.55, -13798.38, -19263.07, -12420.66, -1535.05, -32736.61, 0.00, 0.00, 0.00
86, 14221.99, 8115.20, -5498.04, -13807.72, -19180.50, -12406.63, -1528.66, -32755.18, 0.00, 0.00, 0.00
87, 14109.38, 8011.22, -5632.46, -13950.64, -19157.81, -12489.51, -1647.17, -32907.58, 0.00, 0.00, 0.00
88, 14093.29, 7993.52, -5654.23, -13962.73, -19250.91, -12518.72, -1675.69, -32914.35, 0.00, 0.00, 0.00
89, 14209.09, 8097.05, -5520.59, -13816.82, -19286.56, -12436.93, -1560.71, -32760.10, 0.00, 0.00, 0.00
90, 14243.49, 8132.59, -5484.20, -13782.91, -19194.87, -12398.58, -1517.50, -32733.82, 0.02, 0.96, 0.23
91, 14144.23, 8045.33, -5604.79, -13911.46, -19136.91, -12463.53, -1613.04, -32876.87, 0.00, 0.00, 0.00
92, 14086.43, 7991.73, -5673.03, -13972.92, -19232.69, -12516.53, -1680.72, -32930.29, 0.00, 0.00, 0.00
93, 14185.06, 8082.77, -5556.33, -13842.41, -19291.16, -12442.01, -1579.24, -32786.41, 0.00, 0.00, 0.00
94, 14253.13, 8147.41, -5478.12, -13768.21, -19209.11, -12375.76, -1499.80, -32712.04, 0.00, 0.00, 0.00
95, 14165.60, 8067.53, -5581.32, -13884.70, -19126.81, -12435.08, -1582.30, -32841.02, 0.00, 0.00, 0.00
96, 14080.50, 7986.90, -5679.85, -13982.94, -19198.72, -12516.62, -1682.44, -32943.43, 0.00, 0.00, 0.00
97, 14163.27, 8060.55, -5582.75, -13874.00, -19295.61, -12468.21, -1609.01, -32823.02, 0.00, 0.00, 0.00
98, 14266.51, 8155.46, -5464.42, -13758.33, -19228.18, -12380.14, -1499.96, -32705.00, 0.00, 0.00, 0.00
99, 14193.85, 8089.05, -5549.87, -13860.74, -19141.56, -12419.12, -1568.00, -32817.25, 0.00, 0.00, 0.00
100, 14087.95, 7991.20, -5674.68, -13989.33, -19203.48, -12514.34, -1684.85, -32945.89, 0.02, 0.96, 0.24
101, 14150.13, 8046.47, -5603.16, -13907.25, -19294.67, -12483.36, -1627.50, -32847.05, 0.00, 0.00, 0.00
102, 14251.92, 8141.35, -5485.79, -13787.81, -19259.85, -12401.35, -1515.83, -32719.62, 0.00, 0.00, 0.00
103, 14215.91, 8110.60, -5533.04, -13847.91, -19154.62, -12415.28, -1546.16, -32787.06, 0.00, 0.00, 0.00
104, 14089.38, 7993.07, -5682.26, -13996.59, -19189.46, -12514.27, -1675.75, -32943.50, 0.00, 0.00, 0.00
105, 14115.26, 8017.88, -5655.62, -13952.90, -19297.67, -12514.16, -1654.21, -32891.62, 0.00, 0.00, 0.00
106, 14253.55, 8144.55, -5498.44, -13791.34, -19266.29, -12400.97, -1507.09, -32716.31, 0.00, 0.00, 0.00
107, 14244.57, 8140.97, -5510.46, -13815.34, -19153.28, -12391.72, -1505.41, -32749.42, 0.00, 0.00, 0.00
108, 14116.29, 8023.87, -5658.88, -13970.38, -19159.13, -12490.96, -1636.57, -32914.33, 0.00, 0.00, 0.00
109, 14114.30, 8019.76, -5665.09, -13967.96, -19271.07, -12515.77, -1656.85, -32906.41, 0.00, 0.00, 0.00
110, 14237.99, 8131.52, -5523.36, -13817.16, -19282.94, -12418.43, -1531.36, -32740.14, 0.02, 0.96, 0.23
111, 14250.78, 8142.43, -5512.39, -13812.19, -19181.46, -12387.87, -1508.12, -32736.86, 0.00, 0.00, 0.00
112, 14131.24, 8032.61, -5653.56, -13960.16, -19145.12, -12474.62, -1627.68, -32896.47, 0.00, 0.00, 0.00
113, 14108.49, 8013.52, -5682.24, -13980.59, -19245.92, -12506.74, -1666.86, -32914.30, 0.00, 0.00, 0.00
114, 14221.70, 8118.20, -5550.36, -13837.12, -19292.55, -12422.18, -1553.31, -32759.97, 0.00, 0.00, 0.00
115, 14267.70, 8160.60, -5494.77, -13790.60, -19202.03, -12381.66, -1498.93, -32718.91, 0.00, 0.00, 0.00
116, 14161.04, 8063.41, -5617.24, -13925.20, -19148.20, -12457.48, -1599.40, -32869.13, 0.00, 0.00, 0.00
117, 14106.92, 8011.49, -5683.98, -13986.89, -19226.77, -12515.93, -1659.95, -32926.00, 0.00, 0.00, 0.00
118, 14195.66, 8089.21, -5579.33, -13871.31, -19297.69, -12457.79, -1572.20, -32793.11, 0.00, 0.00, 0.00
119, 14271.07, 8157.78, -5490.95, -13789.48, -19219.10, -12392.16, -1486.86, -32711.87, 0.01, 0.96, 0.23
120, 14190.09, 8083.35, -5590.19, -13899.32, -19135.15, -12441.88, -1563.80, -32832.90, 0.00, 0.00, 0.00
121, 14111.62, 8013.97, -5687.09, -13990.83, -19203.46, -12513.76, -1658.30, -32928.99, 0.00, 0.00, 0.00
