%OpenBCI Raw EEG Data
%
%Sample Rate = 250.0 Hz
%First Column = SampleIndex
%Other Columns = EEG data in microvolts followed by Accel Data (in G) interleaved with Aux Data
0, 30200.63, 20090.71, 19402.79, -3668.32, -14369.58, -887.16, 3119.43, -12125.91, 0.03, 0.49, 0.08
1, 30201.88, 20093.93, 19409.27, -3635.58, -14477.02, -848.29, 3116.01, -12096.85, 0.00, 0.00, 0.00
2, 30204.98, 20093.05, 19423.60, -3613.87, -14505.70, -837.05, 3121.71, -12080.71, 0.00, 0.00, 0.00
3, 30201.41, 20087.06, 19411.06, -3641.68, -14416.29, -876.50, 3117.44, -12112.97, 0.00, 0.00, 0.00
4, 30197.56, 20083.29, 19386.12, -3670.02, -14388.91, -894.43, 3100.81, -12145.31, 0.00, 0.00, 0.00
5, 30204.00, 20089.66, 19392.78, -3645.57, -14469.94, -857.68, 3099.54, -12129.49, 0.00, 0.00, 0.00
6, 30201.59, 20079.49, 19409.94, -3627.29, -14513.48, -841.07, 3105.80, -12088.69, 0.00, 0.00, 0.00
7, 30203.53, 20074.86, 19412.13, -3654.24, -14431.16, -872.34, 3105.98, -12110.60, 0.06, 1.00, 0.17
8, 30198.23, 20070.39, 19395.19, -3691.46, -14378.47, -897.04, 3096.92, -12148.98, 0.00, 0.00, 0.00
9, 30185.11, 20063.71, 19390.54, -3684.86, -14454.92, -875.34, 3085.23, -12143.12, 0.00, 0.00, 0.00
10, 30184.91, 20065.67, 19412.62, -3651.25, -14512.85, -845.48, 3091.22, -12105.97, 0.00, 0.00, 0.00
11, 30190.93, 20068.36, 19424.34, -3657.44, -14442.49, -868.57, 3099.52, -12133.60, 0.00, 0.00, 0.00
12, 30184.87, 20067.24, 19402.68, -3696.17, -14376.40, -903.57, 3085.93, -12175.53, 0.00, 0.00, 0.00
13, 30179.50, 20065.41, 19393.11, -3688.51, -14435.18, -877.35, 3084.09, -12122.00, 0.00, 0.00, 0.00
14, 30185.38, 20067.82, 19410.79, -3650.71, -14509.46, -843.60, 3087.49, -12096.07, 0.00, 0.00, 0.00
15, 30197.12, 20080.85, 19426.41, -3645.97, -14458.05, -854.48, 3097.37, -12102.82, 0.00, 0.00, 0.00
16, 30192.91, 20076.60, 19406.77, -3685.27, -14379.06, -890.18, 3083.18, -12147.48, 0.06, 0.98, 0.17
17, 30183.88, 20071.69, 19388.08, -3692.66, -14414.80, -882.76, 3063.66, -12158.54, 0.00, 0.00, 0.00
18, 30181.92, 20071.49, 19398.45, -3656.95, -14486.79, -842.15, 3069.32, -12124.50, 0.00, 0.00, 0.00
19, 30188.47, 20073.01, 19415.53, -3644.36, -14467.61, -840.83, 3083.33, -12113.57, 0.00, 0.00, 0.00
20, 30179.06, 20064.02, 19396.84, -3684.62, -14395.69, -881.28, 3071.00, -12154.65, 0.00, 0.00, 0.00
21, 30168.75, 20060.47, 19380.10, -3700.20, -14413.19, -883.90, 3055.33, -12170.28, 0.00, 0.00, 0.00
22, 30170.41, 20064.80, 19395.08, -3665.78, -14499.22, -843.17, 3060.38, -12137.02, 0.00, 0.00, 0.00
23, 30168.08, 20061.32, 19406.12, -3655.31, -14502.15, -844.29, 3064.78, -12130.98, 0.00, 0.00, 0.00
24, 30170.65, 20064.78, 19401.67, -3682.14, -14403.89, -876.48, 3066.12, -12157.09, 0.00, 0.00, 0.00
25, 30163.88, 20059.55, 19377.84, -3704.49, -14395.22, -888.84, 3045.60, -12180.38, 0.00, 0.00, 0.00
26, 30155.27, 20054.83, 19377.80, -3681.02, -14492.22, -858.78, 3033.78, -12161.18, 0.06, 0.98, 0.16
27, 30152.77, 20052.67, 19399.57, -3653.97, -14514.84, -844.38, 3041.87, -12139.39, 0.00, 0.00, 0.00
28, 30148.90, 20047.97, 19393.33, -3678.72, -14426.87, -878.02, 3041.04, -12167.10, 0.00, 0.00, 0.00
29, 30141.06, 20043.32, 19365.69, -3708.91, -14395.80, -900.17, 3021.89, -12198.73, 0.00, 0.00, 0.00
30, 30132.41, 20036.01, 19363.16, -3691.95, -14477.09, -868.41, 3018.18, -12177.90, 0.00, 0.00, 0.00
31, 30133.21, 20038.09, 19383.23, -3664.43, -14521.77, -845.59, 3029.76, -12149.71, 0.00, 0.00, 0.00
32, 30138.04, 20040.98, 19386.52, -3682.09, -14443.38, -873.75, 3034.20, -12168.80, 0.00, 0.00, 0.00
33, 30124.74, 20029.60, 19354.40, -3726.80, -14394.72, -911.28, 3012.08, -12221.20, 0.00, 0.00, 0.00
34, 30115.91, 20024.46, 19341.48, -3720.76, -14456.68, -892.59, 2998.62, -12215.79, 0.00, 0.00, 0.00
35, 30112.00, 20023.29, 19354.84, -3692.75, -14532.68, -866.44, 2998.24, -12178.62, 0.00, 0.00, 0.00
36, 30125.66, 20029.42, 19372.57, -3692.33, -14484.51, -885.89, 3004.92, -12178.59, 0.06, 0.98, 0.16
37, 30125.55, 20028.64, 19356.48, -3724.40, -14410.48, -917.40, 2999.02, -12214.83, 0.00, 0.00, 0.00
38, 30111.91, 20021.66, 19337.90, -3726.53, -14462.96, -904.42, 2987.22, -12216.10, 0.00, 0.00, 0.00
39, 30105.29, 20016.90, 19345.79, -3694.70, -14545.44, -869.80, 2987.80, -12191.29, 0.00, 0.00, 0.00
40, 30112.92, 20019.18, 19359.47, -3682.87, -14499.06, -875.41, 2999.29, -12194.71, 0.00, 0.00, 0.00
41, 30112.02, 20019.96, 19342.80, -3712.20, -14410.97, -905.18, 2995.25, -12217.64, 0.00, 0.00, 0.00
42, 30107.78, 20020.21, 19324.00, -3720.29, -14442.56, -897.69, 2980.74, -12213.01, 0.00, 0.00, 0.00
43, 30101.56, 20016.17, 19329.07, -3695.35, -14535.45, -867.47, 2977.32, -12186.80, 0.00, 0.00, 0.00
44, 30112.63, 20023.43, 19353.12, -3680.04, -14504.47, -864.72, 2995.07, -12178.35, 0.00, 0.00, 0.00
45, 30120.34, 20030.69, 19350.71, -3704.73, -14404.27, -896.22, 2997.84, -12207.56, 0.00, 0.00, 0.00
46, 30119.89, 20033.60, 19336.90, -3715.37, -14409.86, -896.55, 2985.70, -12220.08, 0.05, 0.98, 0.17
47, 30112.09, 20027.92, 19337.70, -3691.68, -14507.06, -863.76, 2980.27, -12199.22, 0.00, 0.00, 0.00
48, 30121.19, 20035.30, 19359.29, -3665.95, -14507.65, -854.51, 2992.41, -12181.28, 0.00, 0.00, 0.00
49, 30126.31, 20038.85, 19352.79, -3688.84, -14404.96, -890.63, 2994.51, -12210.67, 0.00, 0.00, 0.00
50, 30121.90, 20038.29, 19333.77, -3711.42, -14376.69, -902.16, 2986.26, -12232.15, 0.00, 0.00, 0.00
51, 30118.75, 20034.27, 19339.78, -3690.18, -14479.42, -865.82, 2984.23, -12207.34, 0.00, 0.00, 0.00
52, 30125.43, 20037.53, 19361.37, -3665.71, -14515.65, -847.78, 2993.77, -12183.85, 0.00, 0.00, 0.00
53, 30130.08, 20039.95, 19360.90, -3682.16, -14424.83, -877.02, 2997.75, -12203.52, 0.00, 0.00, 0.00
54, 30126.69, 20039.08, 19338.97, -3710.64, -14384.06, -895.46, 2984.65, -12231.81, 0.00, 0.00, 0.00
55, 30122.86, 20038.67, 19338.04, -3693.78, -14463.10, -866.17, 2977.95, -12213.82, 0.00, 0.00, 0.00
56, 30129.35, 20043.66, 19359.02, -3663.23, -14510.17, -839.38, 2985.43, -12183.67, 0.05, 0.97, 0.16
57, 30130.73, 20039.95, 19362.87, -3680.75, -14438.80, -868.05, 2981.39, -12205.50, 0.00, 0.00, 0.00
58, 30126.78, 20039.81, 19345.30, -3716.89, -14380.58, -901.98, 2965.23, -12241.27, 0.00, 0.00, 0.00
59, 30132.97, 20046.29, 19346.53, -3705.00, -14436.66, -870.96, 2963.26, -12225.02, 0.00, 0.00, 0.00
60, 30127.02, 20039.97, 19357.93, -3683.10, -14513.86, -849.08, 2958.66, -12205.19, 0.00, 0.00, 0.00
61, 30135.18, 20044.55, 19371.09, -3687.41, -14456.15, -867.40, 2967.06, -12214.42, 0.00, 0.00, 0.00
62, 30134.82, 20042.90, 19350.15, -3724.94, -14380.53, -900.80, 2955.93, -12250.59, 0.00, 0.00, 0.00
63, 30125.19, 20036.39, 19329.97, -3728.07, -14431.96, -890.87, 2938.16, -12244.38, 0.00, 0.00, 0.00
64, 30122.97, 20034.56, 19340.54, -3694.12, -14510.42, -858.96, 2942.27, -12213.53, 0.00, 0.00, 0.00
65, 30124.03, 20028.30, 19351.47, -3691.26, -14456.82, -871.32, 2953.09, -12215.14, 0.00, 0.00, 0.00
66, 30120.36, 20023.79, 19339.76, -3724.99, -14374.50, -906.16, 2950.74, -12247.57, 0.06, 0.98, 0.15
67, 30110.41, 20014.42, 19322.43, -3736.14, -14413.97, -905.04, 2934.25, -12260.71, 0.00, 0.00, 0.00
68, 30107.22, 20009.39, 19329.45, -3705.00, -14507.13, -869.30, 2931.52, -12227.57, 0.00, 0.00, 0.00
69, 30120.70, 20017.42, 19352.70, -3685.44, -14488.83, -860.97, 2948.49, -12203.76, 0.00, 0.00, 0.00
70, 30116.74, 20013.91, 19341.66, -3718.44, -14396.60, -895.97, 2945.38, -12235.25, 0.00, 0.00, 0.00
71, 30112.18, 20012.92, 19322.10, -3734.95, -14397.14, -897.02, 2931.41, -12245.02, 0.00, 0.00, 0.00
72, 30109.56, 20010.85, 19323.62, -3708.67, -14489.32, -857.77, 2928.95, -12226.09, 0.00, 0.00, 0.00
73, 30115.02, 20015.72, 19345.14, -3684.37, -14496.13, -847.53, 2942.29, -12203.54, 0.00, 0.00, 0.00
74, 30115.62, 20018.31, 19340.92, -3708.47, -14402.88, -883.27, 2940.84, -12233.15, 0.00, 0.00, 0.00
75, 30109.23, 20015.36, 19320.69, -3729.63, -14378.97, -895.92, 2927.83, -12254.03, 0.00, 0.00, 0.00
76, 30104.09, 20015.99, 19328.20, -3701.23, -14464.86, -859.11, 2924.70, -12220.53, 0.07, 0.97, 0.15
77, 30103.60, 20016.01, 19349.66, -3674.00, -14500.56, -841.19, 2930.27, -12200.50, 0.00, 0.00, 0.00
78, 30112.07, 20021.57, 19359.70, -3683.88, -14413.59, -864.68, 2938.34, -12216.66, 0.00, 0.00, 0.00
79, 30114.35, 20026.92, 19346.91, -3705.41, -14359.68, -879.50, 2935.36, -12241.58, 0.00, 0.00, 0.00
80, 30107.71, 20024.32, 19341.16, -3691.03, -14436.48, -852.41, 2926.98, -12227.66, 0.00, 0.00, 0.00
81, 30112.63, 20027.59, 19359.96, -3658.82, -14492.22, -824.80, 2930.98, -12196.50, 0.00, 0.00, 0.00
82, 30110.62, 20026.63, 19358.60, -3676.44, -14422.82, -853.57, 2929.73, -12217.02, 0.00, 0.00, 0.00
83, 30102.97, 20020.12, 19329.10, -3714.55, -14352.23, -886.78, 2912.41, -12256.13, 0.00, 0.00, 0.00
84, 30093.70, 20016.37, 19316.40, -3710.57, -14430.31, -869.21, 2897.28, -12254.48, 0.00, 0.00, 0.00
85, 30099.46, 20020.97, 19338.19, -3672.17, -14510.84, -831.44, 2909.24, -12213.86, 0.00, 0.00, 0.00
86, 30106.53, 20024.19, 19350.69, -3671.52, -14461.06, -849.37, 2918.20, -12216.59, 0.07, 0.97, 0.16
87, 30107.84, 20025.46, 19336.45, -3700.60, -14379.64, -882.36, 2909.08, -12253.61, 0.00, 0.00, 0.00
88, 30096.85, 20017.35, 19318.63, -3707.30, -14425.68, -875.50, 2888.81, -12273.61, 0.00, 0.00, 0.00
89, 30083.57, 20004.03, 19324.33, -3681.65, -14519.07, -846.19, 2883.96, -12247.17, 0.00, 0.00, 0.00
90, 30095.97, 20012.83, 19346.37, -3665.82, -14484.65, -847.73, 2899.38, -12222.92, 0.00, 0.00, 0.00
91, 30095.82, 20006.40, 19333.48, -3699.53, -14390.32, -885.40, 2895.87, -12256.31, 0.00, 0.00, 0.00
92, 30078.72, 19991.82, 19307.91, -3717.63, -14413.81, -887.52, 2877.63, -12257.52, 0.00, 0.00, 0.00
93, 30074.56, 19988.83, 19313.49, -3685.11, -14505.97, -849.30, 2877.83, -12223.16, 0.00, 0.00, 0.00
94, 30079.93, 19989.77, 19329.25, -3666.42, -14495.46, -845.05, 2888.85, -12218.83, 0.00, 0.00, 0.00
95, 30082.41, 19992.38, 19320.91, -3693.27, -14397.23, -881.13, 2890.48, -12252.13, 0.00, 0.00, 0.00
96, 30073.44, 19984.20, 19292.04, -3717.09, -14398.52, -894.61, 2870.32, -12277.19, 0.07, 0.98, 0.16
97, 30068.44, 19983.87, 19296.10, -3692.49, -14489.58, -858.33, 2869.43, -12242.41, 0.00, 0.00, 0.00
98, 30079.81, 19995.71, 19326.08, -3665.31, -14497.05, -837.32, 2888.47, -12218.29, 0.00, 0.00, 0.00
99, 30081.54, 19996.32, 19321.47, -3692.66, -14407.29, -872.63, 2885.95, -12248.71, 0.00, 0.00, 0.00
100, 30070.27, 19986.79, 19296.01, -3723.06, -14364.13, -891.70, 2872.09, -12277.95, 0.00, 0.00, 0.00
101, 30063.12, 19983.55, 19292.30, -3703.84, -14451.77, -860.92, 2864.55, -12258.48, 0.00, 0.00, 0.00
102, 30063.12, 19985.90, 19314.28, -3674.72, -14507.67, -837.34, 2873.38, -12231.08, 0.00, 0.00, 0.00
103, 30067.19, 19991.47, 19319.37, -3687.28, -14430.38, -862.58, 2879.15, -12247.79, 0.00, 0.00, 0.00
104, 30068.10, 19992.94, 19297.36, -3716.85, -14375.59, -886.16, 2866.54, -12277.81, 0.00, 0.00, 0.00
105, 30057.46, 19988.67, 19287.28, -3708.76, -14453.55, -863.02, 2853.11, -12270.19, 0.07, 0.97, 0.16
106, 30058.78, 19992.43, 19304.40, -3674.45, -14514.48, -834.52, 2860.31, -12238.94, 0.00, 0.00, 0.00
107, 30065.06, 20000.72, 19313.09, -3680.44, -14446.04, -849.75, 2869.72, -12244.60, 0.00, 0.00, 0.00
108, 30064.62, 19999.09, 19292.64, -3715.91, -14374.34, -879.05, 2861.45, -12277.34, 0.00, 0.00, 0.00
109, 30052.39, 19989.41, 19267.52, -3722.59, -14436.81, -867.96, 2841.44, -12281.17, 0.00, 0.00, 0.00
110, 30044.74, 19982.50, 19277.31, -3695.97, -14516.52, -838.08, 2841.87, -12251.48, 0.00, 0.00, 0.00
111, 30048.10, 19982.64, 19288.57, -3701.09, -14471.82, -854.31, 2848.01, -12256.47, 0.00, 0.00, 0.00
112, 30043.89, 19979.64, 19269.30, -3739.71, -14391.01, -891.21, 2836.17, -12295.38, 0.00, 0.00, 0.00
113, 30035.49, 19976.11, 19252.59, -3744.27, -14430.53, -883.50, 2820.23, -12301.33, 0.00, 0.00, 0.00
114, 30040.72, 19983.04, 19273.28, -3700.69, -14511.62, -837.14, 2833.42, -12259.93, 0.00, 0.00, 0.00
115, 30044.68, 19984.74, 19286.74, -3691.06, -14486.10, -841.27, 2842.49, -12254.81, 0.06, 0.97, 0.16
116, 30046.53, 19987.69, 19275.61, -3724.45, -14387.30, -877.62, 2839.86, -12289.86, 0.00, 0.00, 0.00
117, 30035.07, 19975.82, 19248.09, -3750.40, -14390.88, -889.91, 2820.14, -12310.38, 0.00, 0.00, 0.00
118, 30037.48, 19976.49, 19261.73, -3717.99, -14472.24, -847.22, 2829.91, -12269.32, 0.00, 0.00, 0.00
119, 30048.03, 19984.56, 19287.43, -3696.60, -14479.75, -837.50, 2843.37, -12254.28, 0.00, 0.00, 0.00
120, 30051.65, 19984.63, 19280.53, -3725.14, -14390.41, -877.55, 2841.35, -12291.85, 0.00, 0.00, 0.00
121, 30050.00, 19984.02, 19260.14, -3743.83, -14377.02, -891.10, 2827.29, -12310.16, 0.00, 0.00, 0.00
122, 30043.45, 19983.35, 19259.94, -3717.18, -14468.10, -856.30, 2823.99, -12286.11, 0.00, 0.00, 0.00
123, 30040.47, 19982.75, 19274.38, -3695.79, -14495.17, -843.26, 2829.98, -12274.68, 0.00, 0.00, 0.00
124, 30044.90, 19985.61, 19270.38, -3718.23, -14405.10, -872.70, 2832.10, -12284.38, 0.00, 0.00, 0.00
125, 30045.08, 19983.15, 19246.33, -3749.04, -14368.62, -892.35, 2822.96, -12303.50, 0.06, 0.97, 0.17
126, 30033.46, 19975.82, 19238.53, -3737.52, -14451.81, -863.45, 2816.48, -12290.44, 0.00, 0.00, 0.00
127, 30033.75, 19978.41, 19256.43, -3705.36, -14495.71, -835.35, 2829.35, -12260.85, 0.00, 0.00, 0.00
128, 30039.31, 19981.74, 19259.74, -3714.70, -14415.91, -857.57, 2834.58, -12276.63, 0.00, 0.00, 0.00
129, 30035.13, 19981.97, 19236.76, -3745.01, -14358.92, -885.67, 2820.92, -12310.83, 0.00, 0.00, 0.00
130, 30030.66, 19983.15, 19225.79, -3730.42, -14428.43, -859.58, 2812.23, -12299.54, 0.00, 0.00, 0.00
131, 30029.32, 19982.17, 19240.67, -3698.14, -14489.32, -828.20, 2820.05, -12270.03, 0.00, 0.00, 0.00
132, 30029.59, 19979.20, 19246.48, -3706.34, -14415.89, -849.81, 2826.40, -12278.28, 0.00, 0.00, 0.00
133, 30033.57, 19985.43, 19234.05, -3738.46, -14351.32, -881.02, 2815.67, -12310.65, 0.00, 0.00, 0.00
134, 30025.72, 19980.47, 19219.35, -3742.20, -14420.05, -867.72, 2792.27, -12312.59, 0.00, 0.00, 0.00
135, 30026.24, 19979.02, 19234.59, -3710.28, -14502.21, -832.47, 2781.67, -12281.14, 0.06, 0.97, 0.17
136, 30021.54, 19973.54, 19240.92, -3717.65, -14468.02, -853.34, 2769.67, -12288.68, 0.00, 0.00, 0.00
137, 30020.61, 19974.37, 19229.63, -3747.54, -14376.69, -892.80, 2792.63, -12324.64, 0.00, 0.00, 0.00
138, 30009.99, 19968.36, 19210.25, -3757.22, -14410.04, -891.10, 2793.66, -12336.35, 0.00, 0.00, 0.00
139, 30006.28, 19968.40, 19221.74, -3722.39, -14497.09, -851.65, 2784.60, -12303.67, 0.00, 0.00, 0.00
140, 30011.55, 19972.24, 19242.15, -3704.78, -14473.07, -848.23, 2780.51, -12290.60, 0.00, 0.00, 0.00
141, 30017.92, 19975.24, 19236.71, -3728.96, -14375.77, -881.60, 2774.43, -12318.34, 0.00, 0.00, 0.00
142, 30010.05, 19969.81, 19216.67, -3749.30, -14380.53, -889.31, 2772.53, -12341.72, 0.00, 0.00, 0.00
143, 30002.19, 19964.64, 19219.91, -3725.68, -14473.67, -856.27, 2777.67, -12314.80, 0.00, 0.00, 0.00
144, 30009.47, 19969.12, 19240.92, -3704.22, -14476.73, -845.57, 2788.72, -12282.33, 0.00, 0.00, 0.00
145, 30014.88, 19974.28, 19236.98, -3731.02, -14379.08, -878.78, 2792.63, -12313.49, 0.06, 0.97, 0.17
146, 30005.94, 19967.28, 19208.11, -3763.27, -14354.67, -892.04, 2778.25, -12339.35, 0.00, 0.00, 0.00
147, 29999.10, 19966.05, 19205.67, -3738.66, -14436.75, -853.39, 2775.86, -12303.65, 0.00, 0.00, 0.00
148, 30005.72, 19966.48, 19230.10, -3707.39, -14481.52, -831.53, 2786.55, -12271.24, 0.00, 0.00, 0.00
149, 30007.60, 19965.65, 19228.47, -3731.31, -14409.30, -866.29, 2781.97, -12301.97, 0.00, 0.00, 0.00
150, 30000.76, 19960.29, 19202.36, -3766.54, -14371.48, -892.37, 2764.93, -12340.53, 0.00, 0.00, 0.00
151, 29991.32, 19954.38, 19195.19, -3753.39, -14456.19, -866.22, 2754.72, -12332.89, 0.00, 0.00, 0.00
152, 29992.66, 19955.99, 19211.30, -3723.91, -14512.32, -843.62, 2757.24, -12297.53, 0.00, 0.00, 0.00
153, 30013.18, 19970.01, 19226.95, -3724.47, -14427.13, -858.33, 2773.47, -12298.31, 0.00, 0.00, 0.00
154, 30006.30, 19966.77, 19201.89, -3763.41, -14366.34, -892.48, 2761.49, -12337.76, 0.00, 0.00, 0.00
155, 30001.38, 19963.86, 19190.16, -3759.70, -14433.48, -877.06, 2747.14, -12336.40, 0.07, 0.97, 0.16
156, 29999.97, 19962.07, 19206.63, -3727.20, -14509.08, -849.57, 2749.69, -12309.66, 0.00, 0.00, 0.00
157, 30000.71, 19961.02, 19213.25, -3733.30, -14457.04, -873.71, 2751.52, -12328.13, 0.00, 0.00, 0.00
158, 30005.72, 19965.00, 19202.52, -3760.17, -14374.21, -903.95, 2749.73, -12344.62, 0.00, 0.00, 0.00
159, 29995.12, 19962.19, 19188.08, -3762.69, -14418.57, -890.45, 2741.20, -12340.04, 0.00, 0.00, 0.00
160, 29996.38, 19962.10, 19206.07, -3731.33, -14501.27, -855.67, 2743.74, -12312.50, 0.00, 0.00, 0.00
161, 30002.25, 19960.35, 19224.02, -3728.20, -14466.54, -863.02, 2752.06, -12310.07, 0.00, 0.00, 0.00
162, 30004.29, 19962.37, 19214.88, -3760.44, -14361.49, -895.84, 2749.29, -12340.89, 0.00, 0.00, 0.00
163, 30001.74, 19963.88, 19202.34, -3767.14, -14386.28, -889.13, 2737.33, -12347.30, 0.00, 0.00, 0.00
164, 29996.55, 19961.18, 19213.87, -3736.68, -14494.32, -849.70, 2733.84, -12318.29, 0.00, 0.00, 0.00
165, 30002.05, 19963.97, 19237.50, -3718.26, -14484.98, -846.28, 2746.43, -12303.99, 0.07, 0.97, 0.16
166, 30006.01, 19967.33, 19232.56, -3744.10, -14387.71, -878.20, 2746.76, -12331.68, 0.00, 0.00, 0.00
167, 29998.07, 19963.59, 19206.63, -3763.43, -14390.10, -884.84, 2727.16, -12353.63, 0.00, 0.00, 0.00
168, 29989.69, 19957.67, 19207.39, -3738.15, -14486.03, -852.36, 2718.58, -12332.66, 0.00, 0.00, 0.00
169, 29992.75, 19959.86, 19226.37, -3712.51, -14498.50, -841.48, 2727.72, -12308.84, 0.00, 0.00, 0.00
170, 30002.28, 19966.50, 19224.96, -3730.86, -14401.05, -868.77, 2733.77, -12322.45, 0.00, 0.00, 0.00
171, 30004.09, 19969.41, 19204.80, -3749.42, -14370.74, -877.22, 2722.62, -12346.03, 0.00, 0.00, 0.00
172, 29993.56, 19964.71, 19201.62, -3731.27, -14461.76, -846.95, 2711.29, -12335.46, 0.00, 0.00, 0.00
173, 29994.81, 19965.58, 19220.89, -3705.43, -14497.54, -824.20, 2719.98, -12298.98, 0.00, 0.00, 0.00
174, 30001.40, 19966.79, 19221.67, -3725.37, -14414.53, -854.15, 2725.21, -12321.87, 0.00, 0.00, 0.00
175, 30001.20, 19968.96, 19204.53, -3758.13, -14364.75, -881.04, 2714.91, -12358.70, 0.08, 0.97, 0.17
176, 29984.93, 19960.53, 19189.49, -3755.47, -14451.68, -863.36, 2695.28, -12345.40, 0.00, 0.00, 0.00
177, 30000.91, 19975.40, 19220.73, -3708.94, -14501.57, -824.22, 2710.33, -12303.90, 0.00, 0.00, 0.00
178, 30009.99, 19980.25, 19230.75, -3712.22, -14429.77, -842.10, 2718.78, -12306.40, 0.00, 0.00, 0.00
179, 30005.94, 19978.10, 19207.30, -3748.41, -14353.13, -871.38, 2705.50, -12335.30, 0.00, 0.00, 0.00
180, 29995.39, 19971.98, 19192.30, -3747.43, -14415.65, -857.52, 2689.25, -12341.07, 0.00, 0.00, 0.00
181, 29994.54, 19971.46, 19213.96, -3710.66, -14504.99, -825.32, 2694.82, -12308.84, 0.00, 0.00, 0.00
182, 30006.59, 19976.56, 19234.21, -3704.04, -14455.74, -838.28, 2706.15, -12313.55, 0.00, 0.00, 0.00
183, 30011.87, 19983.22, 19228.09, -3727.80, -14365.60, -868.21, 2706.93, -12344.91, 0.00, 0.00, 0.00
184, 30001.43, 19978.57, 19215.55, -3730.48, -14405.63, -860.86, 2695.60, -12350.68, 0.00, 0.00, 0.00
185, 29996.44, 19975.84, 19229.21, -3696.11, -14493.18, -827.31, 2701.28, -12318.18, 0.08, 0.98, 0.16
186, 29999.42, 19975.82, 19246.95, -3684.91, -14464.08, -833.97, 2713.64, -12312.26, 0.00, 0.00, 0.00
187, 30007.42, 19981.25, 19241.12, -3712.27, -14367.12, -870.11, 2714.62, -12341.67, 0.00, 0.00, 0.00
188, 30008.13, 19985.97, 19226.05, -3722.55, -14380.33, -867.47, 2703.13, -12347.93, 0.00, 0.00, 0.00
189, 30004.78, 19980.18, 19235.49, -3694.85, -14472.58, -828.11, 2705.19, -12317.31, 0.00, 0.00, 0.00
190, 30010.23, 19979.62, 19251.91, -3682.87, -14468.46, -828.67, 2718.35, -12303.23, 0.00, 0.00, 0.00
191, 30019.76, 19984.69, 19250.98, -3709.52, -14367.23, -864.88, 2723.52, -12327.59, 0.00, 0.00, 0.00
192, 30021.99, 19985.12, 19233.23, -3730.73, -14354.42, -875.83, 2709.05, -12356.18, 0.00, 0.00, 0.00
193, 30021.72, 19984.58, 19232.13, -3708.94, -14437.06, -841.92, 2704.94, -12315.63, 0.00, 0.00, 0.00
194, 30036.85, 19994.78, 19257.32, -3678.67, -14459.79, -825.14, 2721.70, -12271.58, 0.07, 0.97, 0.17
195, 30057.75, 20008.23, 19265.73, -3693.16, -14380.40, -854.73, 2725.80, -12298.89, 0.00, 0.00, 0.00
196, 30061.89, 20010.35, 19241.25, -3723.20, -14354.02, -877.31, 2710.66, -12330.72, 0.00, 0.00, 0.00
197, 30051.54, 20001.26, 19227.84, -3711.46, -14449.15, -853.48, 2694.23, -12320.19, 0.00, 0.00, 0.00
198, 30075.70, 20017.89, 19257.32, -3664.48, -14482.41, -815.48, 2715.83, -12271.64, 0.00, 0.00, 0.00
199, 30091.55, 20028.64, 19264.21, -3669.15, -14399.13, -836.09, 2726.69, -12277.03, 0.00, 0.00, 0.00
200, 30093.94, 20029.69, 19243.98, -3695.26, -14342.31, -858.53, 2718.73, -12303.85, 0.00, 0.00, 0.00
201, 30091.39, 20027.47, 19231.78, -3689.49, -14417.21, -839.15, 2704.32, -12296.79, 0.00, 0.00, 0.00
202, 30094.25, 20027.34, 19251.02, -3661.24, -14480.44, -814.77, 2711.00, -12267.35, 0.00, 0.00, 0.00
203, 30107.42, 20036.28, 19265.33, -3665.93, -14409.59, -833.85, 2724.77, -12268.76, 0.00, 0.00, 0.00
204, 30115.46, 20042.23, 19249.19, -3700.35, -14334.62, -863.65, 2717.70, -12298.62, 0.07, 0.97, 0.17
205, 30114.04, 20041.54, 19239.98, -3698.01, -14389.54, -847.65, 2706.53, -12291.76, 0.00, 0.00, 0.00
206, 30116.40, 20044.62, 19258.89, -3663.34, -14454.54, -812.51, 2715.27, -12259.06, 0.00, 0.00, 0.00
207, 30126.93, 20047.93, 19276.17, -3659.76, -14405.83, -822.79, 2728.28, -12254.70, 0.00, 0.00, 0.00
208, 30131.34, 20048.96, 19263.54, -3696.15, -14333.77, -860.86, 2720.23, -12290.15, 0.00, 0.00, 0.00
209, 30123.87, 20046.07, 19241.90, -3708.65, -14375.61, -855.89, 2707.22, -12298.47, 0.00, 0.00, 0.00
210, 30116.43, 20040.57, 19246.19, -3680.13, -14467.19, -818.05, 2713.37, -12266.35, 0.00, 0.00, 0.00
211, 30117.50, 20040.17, 19258.42, -3671.81, -14444.64, -820.55, 2726.20, -12254.48, 0.00, 0.00, 0.00
212, 30125.12, 20043.88, 19251.40, -3700.47, -14346.76, -854.93, 2725.88, -12282.66, 0.00, 0.00, 0.00
213, 30115.98, 20032.26, 19225.92, -3721.50, -14360.86, -859.58, 2706.08, -12303.32, 0.00, 0.00, 0.00
214, 30108.11, 20025.17, 19230.90, -3692.02, -14453.08, -823.08, 2704.11, -12280.50, 0.07, 0.97, 0.16
215, 30115.20, 20027.12, 19250.80, -3672.91, -14447.85, -813.29, 2710.80, -12267.58, 0.00, 0.00, 0.00
216, 30108.92, 20019.94, 19230.99, -3709.32, -14362.36, -857.64, 2700.18, -12280.20, 0.00, 0.00, 0.00
217, 30104.27, 20016.84, 19201.64, -3736.79, -14351.14, -876.10, 2731.99, -12310.16, 0.00, 0.00, 0.00
218, 30086.81, 19997.30, 19180.21, -3741.21, -14458.38, -861.97, 2811.34, -12312.46, 0.00, 0.00, 0.00
219, 30092.62, 19999.58, 19207.35, -3714.50, -14481.11, -841.10, 2772.51, -12277.48, 0.00, 0.00, 0.00
220, 30113.14, 20024.28, 19234.55, -3707.08, -14367.75, -845.52, 2736.21, -12272.74, 0.00, 0.00, 0.00
221, 30121.37, 20039.19, 19221.47, -3723.80, -14322.93, -855.40, 2697.83, -12296.59, 0.00, 0.00, 0.00
222, 30120.76, 20039.54, 19213.20, -3710.66, -14408.31, -827.37, 2697.07, -12281.95, 0.00, 0.00, 0.00
223, 30123.36, 20037.91, 19227.62, -3684.48, -14459.63, -808.84, 2720.05, -12256.51, 0.00, 0.00, 0.00
224, 30130.35, 20042.54, 19232.74, -3694.32, -14380.91, -835.96, 2723.94, -12272.31, 0.07, 0.97, 0.16
225, 30129.08, 20041.69, 19214.47, -3723.22, -14321.57, -861.68, 2700.22, -12304.66, 0.00, 0.00, 0.00
226, 30120.99, 20035.79, 19203.01, -3716.49, -14396.89, -842.59, 2686.55, -12300.70, 0.00, 0.00, 0.00
227, 30117.54, 20035.72, 19219.66, -3678.05, -14466.41, -810.74, 2699.04, -12268.16, 0.00, 0.00, 0.00
228, 30123.94, 20036.62, 19231.53, -3676.39, -14401.70, -827.15, 2708.34, -12271.53, 0.00, 0.00, 0.00
229, 30122.64, 20035.50, 19210.90, -3710.59, -14311.40, -857.79, 2697.43, -12303.61, 0.00, 0.00, 0.00
230, 30111.55, 20027.45, 19192.50, -3715.66, -14376.28, -844.99, 2680.60, -12307.07, 0.00, 0.00, 0.00
231, 30110.95, 20026.34, 19208.35, -3685.85, -14473.22, -810.03, 2685.70, -12274.44, 0.00, 0.00, 0.00
232, 30120.67, 20030.47, 19224.38, -3683.70, -14432.21, -817.45, 2696.45, -12271.17, 0.00, 0.00, 0.00
233, 30121.50, 20030.92, 19210.12, -3722.50, -14341.71, -854.22, 2687.73, -12306.85, 0.00, 0.00, 0.00
234, 30119.73, 20031.50, 19191.63, -3734.80, -14369.13, -850.84, 2670.70, -12316.37, 0.07, 0.97, 0.16
235, 30111.13, 20023.25, 19196.71, -3708.74, -14460.91, -814.79, 2669.74, -12287.02, 0.00, 0.00, 0.00
236, 30106.77, 20016.17, 19207.01, -3702.10, -14447.85, -821.05, 2675.53, -12282.10, 0.00, 0.00, 0.00
237, 30114.68, 20022.83, 19200.68, -3728.16, -14351.94, -860.18, 2671.97, -12318.43, 0.00, 0.00, 0.00
238, 30115.49, 20023.70, 19181.60, -3739.80, -14354.45, -863.92, 2659.37, -12332.87, 0.00, 0.00, 0.00
239, 30112.11, 20022.13, 19187.16, -3707.51, -14445.19, -822.48, 2663.05, -12294.76, 0.00, 0.00, 0.00
240, 30115.26, 20020.08, 19208.17, -3685.22, -14449.67, -808.95, 2676.31, -12269.30, 0.00, 0.00, 0.00
241, 30117.39, 20016.84, 19204.48, -3713.34, -14355.47, -844.38, 2673.80, -12297.95, 0.00, 0.00, 0.00
242, 30110.44, 20011.36, 19181.66, -3741.88, -14337.73, -862.02, 2654.22, -12325.78, 0.00, 0.00, 0.00
243, 30103.62, 20005.26, 19185.13, -3719.78, -14425.26, -825.99, 2649.31, -12305.35, 0.00, 0.00, 0.00
244, 30103.24, 20003.00, 19206.09, -3696.35, -14457.78, -808.26, 2657.53, -12291.72, 0.07, 0.97, 0.17
245, 30111.24, 20008.45, 19207.72, -3714.86, -14363.61, -836.76, 2662.27, -12313.17, 0.00, 0.00, 0.00
246, 30109.83, 20007.49, 19185.57, -3743.27, -14306.55, -858.51, 2651.03, -12328.35, 0.00, 0.00, 0.00
247, 30099.95, 20001.08, 19180.59, -3729.97, -14398.70, -830.61, 2642.71, -12304.01, 0.00, 0.00, 0.00
248, 30100.89, 20000.94, 19202.67, -3695.19, -14462.52, -803.84, 2652.28, -12285.21, 0.00, 0.00, 0.00
249, 30095.62, 19995.80, 19203.54, -3707.22, -14393.88, -831.48, 2656.19, -12301.77, 0.00, 0.00, 0.00
250, 30088.42, 19990.30, 19179.38, -3741.86, -14336.10, -865.59, 2637.44, -12336.96, 0.00, 0.00, 0.00
251, 30090.07, 19996.90, 19177.77, -3724.72, -14389.87, -831.51, 2636.88, -12321.85, 0.00, 0.00, 0.00
252, 30086.21, 19993.61, 19194.07, -3694.94, -14463.70, -797.87, 2642.56, -12291.92, 0.00, 0.00, 0.00
253, 30092.51, 19996.29, 19209.49, -3696.55, -14406.50, -813.40, 2652.88, -12294.29, 0.00, 0.00, 0.00
254, 30091.91, 19997.63, 19194.36, -3733.05, -14324.72, -848.29, 2647.25, -12327.93, 0.07, 0.97, 0.17
255, 30082.85, 19993.37, 19173.86, -3744.34, -14372.26, -838.46, 2631.81, -12334.94, 0.00, 0.00, 0.00
0, 30081.31, 19991.31, 19186.16, -3711.95, -14458.83, -800.13, 2638.69, -12298.24, 0.00, 0.00, 0.00
1, 30086.03, 19992.70, 19199.25, -3706.63, -14427.74, -807.86, 2648.66, -12294.26, 0.00, 0.00, 0.00
2, 30083.50, 19987.62, 19179.88, -3747.78, -14340.86, -847.60, 2639.45, -12334.16, 0.00, 0.00, 0.00
3, 30072.79, 19983.58, 19159.87, -3760.79, -14361.69, -845.97, 2624.97, -12344.78, 0.00, 0.00, 0.00
4, 30066.43, 19976.29, 19167.36, -3732.43, -14453.89, -810.50, 2625.68, -12319.70, 0.00, 0.00, 0.00
5, 30076.17, 19977.41, 19188.41, -3713.61, -14440.72, -805.80, 2641.69, -12307.52, 0.00, 0.00, 0.00
6, 30080.06, 19981.36, 19180.72, -3738.35, -14340.03, -835.08, 2643.85, -12316.44, 0.00, 0.00, 0.00
7, 30073.58, 19978.10, 19157.32, -3755.90, -14322.04, -844.43, 2631.31, -12336.91, 0.00, 0.00, 0.00
8, 30069.58, 19974.50, 19160.92, -3728.34, -14424.45, -810.72, 2631.65, -12315.12, 0.07, 0.97, 0.16
9, 30077.38, 19983.04, 19188.26, -3695.82, -14448.14, -792.68, 2645.11, -12294.20, 0.00, 0.00, 0.00
10, 30076.04, 19979.55, 19181.66, -3720.02, -14361.98, -825.63, 2642.98, -12317.44, 0.00, 0.00, 0.00
11, 30074.12, 19982.44, 19164.16, -3737.90, -14332.97, -839.04, 2631.47, -12342.99, 0.00, 0.00, 0.00
12, 30066.74, 19978.01, 19164.41, -3719.55, -14420.79, -810.16, 2622.62, -12330.16, 0.00, 0.00, 0.00
13, 30071.34, 19979.93, 19190.16, -3693.65, -14462.27, -794.22, 2627.47, -12309.62, 0.00, 0.00, 0.00
14, 30077.80, 19985.28, 19196.48, -3713.79, -14377.89, -821.72, 2630.42, -12329.94, 0.00, 0.00, 0.00
15, 30078.25, 19986.75, 19180.10, -3745.44, -14326.13, -845.28, 2617.59, -12358.21, 0.00, 0.00, 0.00
16, 30070.58, 19981.54, 19170.80, -3735.58, -14402.06, -820.69, 2606.30, -12346.97, 0.00, 0.00, 0.00
17, 30069.76, 19976.98, 19184.86, -3708.51, -14463.08, -796.30, 2612.45, -12311.88, 0.07, 0.97, 0.16
18, 30075.48, 19980.00, 19189.60, -3722.95, -14395.39, -822.34, 2616.58, -12329.13, 0.00, 0.00, 0.00
19, 30068.62, 19974.32, 19163.83, -3763.27, -14330.06, -860.94, 2602.26, -12367.06, 0.00, 0.00, 0.00
20, 30076.57, 19984.61, 19160.72, -3747.85, -14365.06, -829.38, 2602.44, -12340.26, 0.00, 0.00, 0.00
21, 30079.12, 19983.13, 19172.43, -3715.84, -14438.31, -798.56, 2607.31, -12311.92, 0.00, 0.00, 0.00
22, 30082.38, 19981.47, 19185.55, -3717.85, -14410.77, -814.12, 2610.64, -12318.49, 0.00, 0.00, 0.00
23, 30087.06, 19986.21, 19172.74, -3747.05, -14333.08, -846.77, 2601.03, -12352.62, 0.00, 0.00, 0.00
24, 30085.34, 19987.96, 19159.27, -3746.09, -14366.94, -832.94, 2588.04, -12354.01, 0.00, 0.00, 0.00
25, 30081.33, 19986.46, 19170.06, -3713.54, -14457.00, -795.16, 2586.41, -12325.00, 0.00, 0.00, 0.00
26, 30087.71, 19990.10, 19190.04, -3703.64, -14430.55, -804.06, 2594.21, -12319.07, 0.00, 0.00, 0.00
27, 30088.31, 19986.28, 19177.35, -3737.01, -14339.98, -843.80, 2589.43, -12356.29, 0.07, 0.98, 0.16
28, 30089.22, 19989.81, 19162.87, -3745.46, -14354.60, -842.55, 2578.81, -12368.58, 0.00, 0.00, 0.00
29, 30082.27, 19987.91, 19170.15, -3712.54, -14444.34, -802.47, 2580.80, -12335.55, 0.00, 0.00, 0.00
30, 30087.46, 19990.01, 19190.83, -3689.40, -14436.86, -793.98, 2595.84, -12314.54, 0.00, 0.00, 0.00
31, 30092.58, 19990.97, 19186.04, -3715.40, -14339.85, -829.05, 2594.50, -12343.62, 0.00, 0.00, 0.00
32, 30083.50, 19985.70, 19161.93, -3738.71, -14331.87, -840.34, 2577.42, -12374.28, 0.00, 0.00, 0.00
33, 30073.78, 19978.46, 19161.32, -3715.57, -14429.15, -806.72, 2570.27, -12351.04, 0.00, 0.00, 0.00
34, 30073.18, 19974.05, 19177.21, -3694.01, -14441.06, -793.87, 2579.70, -12321.38, 0.00, 0.00, 0.00
35, 30084.20, 19983.08, 19183.74, -3709.25, -14347.72, -820.35, 2585.74, -12344.40, 0.00, 0.00, 0.00
36, 30086.92, 19988.25, 19172.37, -3731.09, -14324.81, -830.43, 2575.17, -12363.17, 0.00, 0.00, 0.00
37, 30076.10, 19980.51, 19164.70, -3721.32, -14415.80, -806.34, 2563.28, -12354.95, 0.07, 0.98, 0.16
38, 30079.72, 19982.77, 19188.26, -3695.64, -14454.85, -785.53, 2577.07, -12326.99, 0.00, 0.00, 0.00
39, 30081.56, 19978.64, 19187.09, -3722.24, -14378.43, -816.55, 2579.19, -12345.47, 0.00, 0.00, 0.00
40, 30077.56, 19978.53, 19168.70, -3755.96, -14321.81, -842.35, 2567.97, -12377.01, 0.00, 0.00, 0.00
41, 30071.41, 19979.96, 19162.96, -3746.11, -14383.15, -809.74, 2566.74, -12361.90, 0.00, 0.00, 0.00
42, 30062.71, 19970.68, 19172.72, -3720.36, -14451.07, -784.57, 2570.52, -12335.44, 0.00, 0.00, 0.00
43, 30065.31, 19969.18, 19179.16, -3727.85, -14390.19, -806.32, 2575.75, -12347.30, 0.00, 0.00, 0.00
44, 30062.00, 19966.21, 19159.38, -3760.73, -14312.69, -835.53, 2568.15, -12378.17, 0.00, 0.00, 0.00
45, 30048.37, 19960.22, 19140.96, -3761.66, -14367.61, -820.93, 2550.96, -12378.60, 0.00, 0.00, 0.00
46, 30045.53, 19958.41, 19155.58, -3726.71, -14451.23, -788.14, 2554.16, -12347.51, 0.00, 0.00, 0.00
47, 30056.39, 19962.01, 19172.39, -3714.77, -14407.13, -792.62, 2568.57, -12343.33, 0.07, 0.97, 0.16
48, 30056.72, 19963.88, 19157.99, -3745.21, -14316.11, -823.08, 2563.28, -12376.36, 0.00, 0.00, 0.00
49, 30050.91, 19966.10, 19142.77, -3747.18, -14329.95, -813.85, 2552.21, -12370.64, 0.00, 0.00, 0.00
50, 30042.22, 19960.33, 19150.93, -3716.72, -14428.36, -779.72, 2551.36, -12346.05, 0.00, 0.00, 0.00
51, 30046.00, 19960.60, 19170.26, -3705.49, -14423.00, -783.36, 2559.19, -12339.93, 0.00, 0.00, 0.00
52, 30046.13, 19959.62, 19155.89, -3742.02, -14331.02, -820.00, 2553.40, -12377.75, 0.00, 0.00, 0.00
53, 30038.73, 19956.04, 19130.50, -3760.39, -14338.24, -823.68, 2539.09, -12391.63, 0.00, 0.00, 0.00
54, 30030.89, 19951.77, 19135.53, -3731.85, -14429.44, -788.21, 2539.27, -12362.55, 0.00, 0.00, 0.00
55, 30031.15, 19951.70, 19154.53, -3713.27, -14430.71, -778.22, 2551.85, -12346.41, 0.00, 0.00, 0.00
56, 30036.88, 19953.13, 19149.14, -3741.26, -14335.49, -812.51, 2550.69, -12378.24, 0.00, 0.00, 0.00
57, 30030.71, 19951.68, 19124.46, -3767.32, -14320.65, -830.46, 2534.73, -12404.55, 0.07, 0.98, 0.16
58, 30016.56, 19944.35, 19119.14, -3750.73, -14415.58, -799.28, 2524.81, -12363.96, 0.00, 0.00, 0.00
59, 30014.86, 19939.99, 19136.85, -3729.86, -14450.31, -788.59, 2528.47, -12348.47, 0.00, 0.00, 0.00
60, 30038.58, 19962.41, 19156.03, -3733.05, -14347.72, -805.31, 2544.75, -12354.64, 0.00, 0.00, 0.00
61, 30033.39, 19959.50, 19131.28, -3766.45, -14310.17, -832.62, 2528.52, -12391.90, 0.00, 0.00, 0.00
62, 30024.67, 19953.29, 19126.41, -3752.34, -14390.41, -803.86, 2521.72, -12376.74, 0.00, 0.00, 0.00
63, 30017.63, 19946.83, 19139.75, -3727.80, -14430.35, -778.44, 2529.37, -12351.64, 0.00, 0.00, 0.00
64, 30022.62, 19949.18, 19142.32, -3741.37, -14350.83, -803.10, 2538.24, -12365.23, 0.00, 0.00, 0.00
65, 30019.53, 19948.66, 19121.00, -3773.69, -14307.15, -832.56, 2525.77, -12398.42, 0.00, 0.00, 0.00
66, 30012.04, 19946.38, 19107.63, -3768.59, -14381.04, -811.19, 2514.21, -12393.71, 0.00, 0.00, 0.00
67, 30008.80, 19941.09, 19119.08, -3734.06, -14447.41, -780.57, 2520.78, -12364.07, 0.07, 0.98, 0.17
68, 30014.88, 19945.20, 19128.20, -3738.31, -14393.03, -800.15, 2527.38, -12366.44, 0.00, 0.00, 0.00
69, 30017.77, 19950.36, 19109.58, -3769.55, -14319.67, -834.35, 2516.81, -12404.10, 0.00, 0.00, 0.00
70, 30018.26, 19954.77, 19101.76, -3762.51, -14367.57, -817.20, 2508.72, -12400.57, 0.00, 0.00, 0.00
71, 30013.54, 19953.87, 19116.06, -3729.57, -14451.65, -782.24, 2516.83, -12368.94, 0.00, 0.00, 0.00
72, 30018.35, 19950.65, 19132.49, -3722.88, -14414.77, -795.36, 2526.89, -12369.08, 0.00, 0.00, 0.00
73, 30019.15, 19950.63, 19120.55, -3752.66, -14326.22, -831.62, 2519.06, -12403.79, 0.00, 0.00, 0.00
74, 30014.01, 19952.42, 19106.96, -3752.50, -14349.31, -821.63, 2508.49, -12407.10, 0.00, 0.00, 0.00
75, 30002.83, 19943.57, 19109.91, -3721.43, -14444.32, -786.58, 2505.56, -12378.60, 0.00, 0.00, 0.00
76, 30012.56, 19944.86, 19131.10, -3702.43, -14423.58, -777.10, 2521.34, -12360.54, 0.00, 0.00, 0.00
77, 30021.95, 19951.97, 19128.35, -3729.25, -14319.11, -803.70, 2526.57, -12384.18, 0.07, 0.98, 0.16
78, 30008.69, 19942.99, 19099.23, -3759.83, -14323.76, -813.60, 2508.89, -12410.83, 0.00, 0.00, 0.00
79, 29998.74, 19939.25, 19096.50, -3740.70, -14405.56, -778.67, 2509.74, -12373.90, 0.00, 0.00, 0.00
80, 30005.07, 19945.76, 19111.72, -3725.43, -14416.79, -770.15, 2519.51, -12350.01, 0.00, 0.00, 0.00
81, 30015.33, 19953.31, 19113.18, -3750.89, -14339.90, -803.93, 2516.99, -12374.17, 0.00, 0.00, 0.00
82, 30014.32, 19953.76, 19095.74, -3777.42, -14320.92, -819.17, 2501.45, -12406.02, 0.00, 0.00, 0.00
83, 30004.94, 19950.96, 19095.88, -3759.74, -14410.73, -791.10, 2491.06, -12389.26, 0.00, 0.00, 0.00
84, 30007.69, 19953.31, 19115.50, -3732.94, -14447.63, -776.07, 2496.65, -12361.83, 0.00, 0.00, 0.00
85, 30018.86, 19961.02, 19121.89, -3747.56, -14358.40, -806.16, 2499.82, -12387.87, 0.00, 0.00, 0.00
86, 30013.34, 19958.45, 19101.71, -3777.71, -14308.94, -827.15, 2485.60, -12418.43, 0.00, 0.00, 0.00
87, 30002.32, 19951.46, 19092.12, -3766.07, -14386.19, -798.20, 2476.19, -12408.12, 0.06, 0.97, 0.16
88, 30000.00, 19945.76, 19111.37, -3731.82, -14442.29, -770.15, 2485.11, -12375.24, 0.00, 0.00, 0.00
89, 29999.08, 19945.11, 19118.07, -3740.36, -14370.58, -788.39, 2492.29, -12380.79, 0.00, 0.00, 0.00
90, 29996.00, 19941.85, 19097.20, -3773.35, -14305.52, -819.73, 2477.20, -12418.20, 0.00, 0.00, 0.00
91, 29993.67, 19942.94, 19088.12, -3758.67, -14364.39, -797.67, 2466.27, -12414.47, 0.00, 0.00, 0.00
92, 29993.04, 19941.06, 19100.21, -3719.98, -14438.33, -765.59, 2469.44, -12384.59, 0.00, 0.00, 0.00
93, 30004.04, 19952.60, 19114.92, -3711.44, -14368.06, -777.95, 2479.52, -12382.33, 0.00, 0.00, 0.00
94, 30005.96, 19952.87, 19097.64, -3747.52, -14290.43, -814.32, 2462.02, -12424.06, 0.00, 0.00, 0.00
95, 30000.69, 19951.12, 19083.29, -3754.69, -14353.08, -804.73, 2439.85, -12432.96, 0.00, 0.00, 0.00
96, 30004.71, 19954.56, 19102.27, -3718.30, -14439.63, -763.67, 2448.72, -12394.67, 0.00, 0.00, 0.00
97, 30001.92, 19949.69, 19110.03, -3719.35, -14413.95, -780.46, 2450.44, -12397.24, 0.07, 0.98, 0.17
98, 30006.95, 19953.85, 19104.53, -3746.47, -14318.97, -814.65, 2449.46, -12426.47, 0.00, 0.00, 0.00
99, 30007.08, 19955.28, 19091.56, -3753.22, -14333.15, -805.71, 2441.46, -12430.81, 0.00, 0.00, 0.00
100, 30007.44, 19954.65, 19105.73, -3720.49, -14421.39, -766.04, 2444.97, -12395.05, 0.00, 0.00, 0.00
101, 30008.51, 19951.46, 19122.23, -3713.68, -14416.58, -764.85, 2455.32, -12385.12, 0.00, 0.00, 0.00
102, 30010.10, 19948.42, 19112.93, -3750.82, -14324.38, -803.90, 2452.05, -12417.69, 0.00, 0.00, 0.00
103, 30003.77, 19947.81, 19096.53, -3773.60, -14317.36, -811.28, 2443.09, -12431.86, 0.00, 0.00, 0.00
104, 29998.41, 19946.21, 19103.72, -3749.01, -14405.90, -774.60, 2445.68, -12408.77, 0.00, 0.00, 0.00
105, 29998.14, 19942.70, 19121.20, -3732.94, -14423.29, -766.35, 2454.60, -12396.66, 0.00, 0.00, 0.00
106, 29997.61, 19938.89, 19116.75, -3761.49, -14337.66, -800.89, 2449.04, -12410.43, 0.06, 0.97, 0.17
107, 29992.31, 19940.73, 19102.34, -3785.58, -14306.05, -813.87, 2434.57, -12429.56, 0.00, 0.00, 0.00
108, 29986.09, 19938.40, 19105.94, -3763.79, -14380.42, -779.07, 2431.15, -12410.85, 0.00, 0.00, 0.00
109, 29985.78, 19937.62, 19127.04, -3733.17, -14409.72, -760.05, 2443.76, -12390.62, 0.00, 0.00, 0.00
110, 29989.63, 19941.98, 19136.18, -3744.97, -14344.23, -789.82, 2446.69, -12407.54, 0.00, 0.00, 0.00
111, 29991.64, 19945.91, 19119.48, -3772.93, -14303.44, -815.35, 2430.39, -12441.72, 0.00, 0.00, 0.00
112, 29982.52, 19941.18, 19110.83, -3759.70, -14376.31, -785.75, 2421.88, -12421.18, 0.00, 0.00, 0.00
113, 29981.49, 19941.71, 19129.36, -3724.81, -14439.47, -751.60, 2425.63, -12386.58, 0.00, 0.00, 0.00
114, 29992.38, 19947.43, 19137.83, -3728.81, -14371.75, -773.30, 2427.56, -12403.30, 0.00, 0.00, 0.00
115, 29992.58, 19950.00, 19117.07, -3758.83, -14300.60, -803.43, 2414.79, -12438.95, 0.00, 0.00, 0.00
116, 29981.15, 19945.15, 19104.77, -3757.71, -14358.92, -785.48, 2402.52, -12437.11, 0.06, 0.97, 0.17
117, 29975.74, 19938.34, 19116.62, -3729.37, -14438.76, -754.82, 2403.77, -12412.95, 0.00, 0.00, 0.00
118, 29986.41, 19943.48, 19130.70, -3727.98, -14391.04, -770.11, 2411.35, -12410.07, 0.00, 0.00, 0.00
119, 29992.33, 19950.47, 19116.11, -3760.81, -14303.15, -803.03, 2407.69, -12437.78, 0.00, 0.00, 0.00
120, 29981.71, 19941.49, 19095.09, -3775.03, -14341.46, -800.17, 2392.15, -12447.33, 0.00, 0.00, 0.00
121, 29981.24, 19941.58, 19111.03, -3747.16, -14427.22, -765.01, 2396.40, -12416.86, 0.00, 0.00, 0.00
122, 29982.58, 19938.56, 19126.01, -3747.85, -14400.89, -770.84, 2406.48, -12405.87, 0.00, 0.00, 0.00
123, 29990.54, 19941.24, 19116.31, -3781.67, -14291.17, -804.64, 2405.00, -12433.65, 0.00, 0.00, 0.00
124, 29980.84, 19936.32, 19094.94, -3799.73, -14315.49, -809.87, 2383.66, -12458.66, 0.00, 0.00, 0.00
125, 29978.05, 19934.94, 19106.79, -3767.07, -14428.23, -772.77, 2379.07, -12423.70, 0.00, 0.00, 0.00
126, 29985.78, 19940.06, 19126.72, -3746.06, -14430.67, -763.56, 2390.07, -12401.80, 0.07, 0.97, 0.17
127, 29991.44, 19941.69, 19124.67, -3771.45, -14335.11, -796.95, 2388.64, -12434.12, 0.00, 0.00, 0.00
128, 29988.46, 19939.99, 19110.49, -3790.27, -14320.70, -807.17, 2373.33, -12458.39, 0.00, 0.00, 0.00
129, 29978.83, 19930.96, 19116.11, -3770.87, -14411.33, -775.76, 2365.66, -12441.00, 0.00, 0.00, 0.00
130, 29974.40, 19924.59, 19136.80, -3747.14, -14437.59, -764.27, 2372.91, -12421.02, 0.00, 0.00, 0.00
131, 29977.78, 19924.26, 19139.08, -3761.26, -14344.54, -792.39, 2381.00, -12441.11, 0.00, 0.00, 0.00
132, 29981.38, 19930.78, 19123.39, -3777.87, -14300.36, -804.60, 2375.19, -12462.08, 0.00, 0.00, 0.00
133, 29972.53, 19927.00, 19116.35, -3757.64, -14383.86, -774.64, 2361.84, -12448.51, 0.00, 0.00, 0.00
134, 29975.97, 19932.66, 19137.50, -3718.12, -14430.02, -747.04, 2370.13, -12421.15, 0.00, 0.00, 0.00
135, 29983.21, 19939.45, 19139.75, -3726.95, -14354.27, -770.33, 2374.72, -12438.43, 0.00, 0.00, 0.00
136, 29982.05, 19941.64, 19120.35, -3756.59, -14297.23, -796.08, 2363.81, -12461.70, 0.07, 0.98, 0.16
137, 29972.66, 19939.83, 19113.38, -3746.96, -14365.82, -770.53, 2354.89, -12449.97, 0.00, 0.00, 0.00
138, 29969.29, 19935.59, 19130.34, -3717.16, -14429.03, -740.54, 2357.17, -12419.90, 0.00, 0.00, 0.00
139, 29976.44, 19935.07, 19140.33, -3727.13, -14351.65, -760.74, 2361.71, -12429.96, 0.00, 0.00, 0.00
140, 29979.79, 19937.93, 19124.44, -3768.64, -14287.53, -795.14, 2346.35, -12469.26, 0.00, 0.00, 0.00
141, 29970.56, 19932.08, 19110.72, -3776.46, -14356.35, -785.06, 2327.96, -12476.52, 0.00, 0.00, 0.00
142, 29972.59, 19930.78, 19128.09, -3744.07, -14434.87, -749.99, 2336.74, -12440.47, 0.00, 0.00, 0.00
143, 29984.55, 19942.27, 19150.33, -3732.43, -14386.83, -753.50, 2352.81, -12427.50, 0.00, 0.00, 0.00
144, 29985.04, 19946.27, 19137.70, -3762.94, -14295.91, -787.54, 2348.90, -12466.73, 0.00, 0.00, 0.00
145, 29972.26, 19938.58, 19118.41, -3772.37, -14327.96, -785.89, 2333.01, -12473.88, 0.00, 0.00, 0.00
146, 29969.08, 19934.20, 19132.06, -3736.65, -14418.64, -749.10, 2335.47, -12442.54, 0.07, 0.98, 0.16
147, 29976.66, 19939.88, 19157.88, -3715.78, -14394.75, -745.41, 2354.20, -12423.10, 0.00, 0.00, 0.00
148, 29980.13, 19940.01, 19150.77, -3744.57, -14300.78, -784.46, 2353.04, -12458.48, 0.00, 0.00, 0.00
149, 29977.89, 19939.50, 19129.45, -3762.09, -14308.31, -791.12, 2338.24, -12482.00, 0.00, 0.00, 0.00
150, 29977.78, 19938.31, 19134.46, -3734.89, -14404.27, -758.66, 2336.67, -12441.63, 0.00, 0.00, 0.00
151, 29989.54, 19942.20, 19155.47, -3715.62, -14411.67, -752.23, 2347.78, -12424.69, 0.00, 0.00, 0.00
152, 30000.11, 19945.20, 19148.36, -3744.36, -14323.09, -791.88, 2345.52, -12458.44, 0.00, 0.00, 0.00
153, 30015.66, 19963.21, 19137.88, -3748.30, -14283.19, -791.10, 2346.44, -12470.06, 0.00, 0.00, 0.00
154, 30012.04, 19961.56, 19130.03, -3725.41, -14365.38, -760.94, 2344.23, -12450.06, 0.00, 0.00, 0.00
155, 30025.68, 19970.63, 19152.74, -3690.07, -14412.83, -740.16, 2359.07, -12419.46, 0.00, 0.00, 0.00
156, 30043.67, 19982.86, 19157.10, -3698.88, -14332.97, -763.29, 2369.71, -12432.84, 0.06, 0.98, 0.16
157, 30049.06, 19990.08, 19136.40, -3723.91, -14287.39, -785.46, 2361.17, -12460.85, 0.00, 0.00, 0.00
158, 30045.46, 19986.24, 19128.53, -3709.65, -14367.70, -759.04, 2354.73, -12435.82, 0.00, 0.00, 0.00
159, 30051.29, 19983.73, 19143.80, -3684.10, -14423.96, -740.45, 2358.13, -12409.55, 0.00, 0.00, 0.00
160, 30069.78, 19994.37, 19156.43, -3692.60, -14343.74, -762.62, 2368.75, -12417.29, 0.00, 0.00, 0.00
161, 30074.63, 19999.24, 19137.99, -3729.59, -14279.63, -790.22, 2357.51, -12449.97, 0.00, 0.00, 0.00
162, 30064.57, 19990.55, 19120.71, -3733.55, -14351.99, -774.53, 2341.95, -12447.71, 0.00, 0.00, 0.00
163, 30068.84, 19993.12, 19135.80, -3703.35, -14426.37, -747.31, 2348.41, -12414.85, 0.00, 0.00, 0.00
164, 30083.35, 20001.41, 19150.44, -3704.24, -14366.54, -763.02, 2360.75, -12415.30, 0.00, 0.00, 0.00
165, 30088.53, 20005.10, 19134.50, -3739.42, -14287.26, -796.24, 2353.68, -12459.55, 0.00, 0.00, 0.00
166, 30094.70, 20007.47, 19123.01, -3737.90, -14332.14, -777.39, 2344.01, -12449.29, 0.06, 0.98, 0.16
167, 30092.96, 20003.38, 19134.17, -3706.99, -14418.08, -739.11, 2349.32, -12392.34, 0.00, 0.00, 0.00
168, 30099.71, 20007.69, 19151.82, -3698.63, -14379.17, -748.00, 2364.79, -12385.30, 0.00, 0.00, 0.00
169, 30102.50, 20009.33, 19135.51, -3736.23, -14291.35, -786.92, 2358.22, -12429.11, 0.00, 0.00, 0.00
170, 30097.54, 20006.13, 19117.04, -3750.02, -14313.14, -787.47, 2344.18, -12445.36, 0.00, 0.00, 0.00
171, 30099.84, 20009.48, 19130.88, -3715.46, -14391.04, -745.21, 2351.09, -12403.23, 0.00, 0.00, 0.00
172, 30106.12, 20010.78, 19154.06, -3700.89, -14394.28, -745.27, 2358.29, -12392.23, 0.00, 0.00, 0.00
173, 30116.81, 20018.36, 19158.60, -3723.82, -14310.10, -781.10, 2354.80, -12424.42, 0.00, 0.00, 0.00
174, 30113.99, 20021.48, 19145.74, -3736.65, -14308.11, -786.09, 2342.62, -12436.44, 0.00, 0.00, 0.00
175, 30107.82, 20013.10, 19151.60, -3711.02, -14399.64, -749.95, 2339.98, -12409.80, 0.00, 0.00, 0.00
176, 30115.58, 20017.13, 19175.31, -3686.16, -14409.83, -737.09, 2354.38, -12386.42, 0.07, 0.98, 0.16
177, 30118.35, 20017.24, 19168.72, -3711.75, -14315.89, -767.67, 2355.78, -12412.17, 0.00, 0.00, 0.00
178, 30104.74, 20007.38, 19133.67, -3745.50, -14298.39, -790.67, 2333.54, -12444.78, 0.00, 0.00, 0.00
179, 30103.31, 20010.80, 19136.65, -3717.90, -14375.75, -748.45, 2341.26, -12413.11, 0.00, 0.00, 0.00
180, 30106.03, 20014.15, 19156.88, -3684.57, -14408.74, -724.31, 2355.05, -12383.36, 0.00, 0.00, 0.00
181, 30114.68, 20018.13, 19157.32, -3698.16, -14323.69, -751.04, 2360.52, -12402.71, 0.00, 0.00, 0.00
182, 30113.74, 20018.42, 19134.41, -3729.03, -14278.88, -775.36, 2345.52, -12432.75, 0.00, 0.00, 0.00
183, 30105.50, 20016.50, 19128.44, -3716.25, -14353.31, -752.49, 2334.51, -12418.38, 0.00, 0.00, 0.00
184, 30105.59, 20016.34, 19147.76, -3685.09, -14395.22, -729.45, 2344.63, -12390.58, 0.00, 0.00, 0.00
185, 30113.25, 20014.29, 19154.91, -3698.07, -14340.45, -754.44, 2345.99, -12404.01, 0.07, 0.97, 0.17
186, 30118.21, 20017.35, 19140.83, -3731.20, -14287.15, -785.53, 2330.55, -12439.62, 0.00, 0.00, 0.00
187, 30106.21, 20009.97, 19125.63, -3734.02, -14352.37, -774.69, 2313.61, -12440.15, 0.00, 0.00, 0.00
188, 30108.00, 20011.87, 19147.64, -3697.63, -14422.73, -736.15, 2322.12, -12402.31, 0.00, 0.00, 0.00
189, 30110.28, 20012.61, 19158.82, -3701.52, -14368.24, -749.23, 2330.88, -12406.71, 0.00, 0.00, 0.00
190, 30112.72, 20010.58, 19143.55, -3736.03, -14281.36, -782.45, 2326.37, -12440.58, 0.00, 0.00, 0.00
191, 30109.99, 20009.41, 19128.13, -3738.42, -14317.95, -767.92, 2316.89, -12433.87, 0.00, 0.00, 0.00
192, 30100.60, 20003.09, 19137.41, -3705.16, -14406.44, -732.15, 2320.22, -12400.28, 0.00, 0.00, 0.00
193, 30099.73, 19998.73, 19149.39, -3701.54, -14381.07, -737.25, 2328.11, -12394.09, 0.00, 0.00, 0.00
194, 30102.70, 19996.85, 19137.16, -3735.56, -14291.08, -773.08, 2321.94, -12429.71, 0.00, 0.00, 0.00
195, 30096.85, 19994.13, 19121.11, -3747.56, -14308.40, -769.55, 2310.77, -12442.19, 0.07, 0.97, 0.17
196, 30090.86, 19990.82, 19131.66, -3717.34, -14391.97, -730.77, 2313.52, -12402.98, 0.00, 0.00, 0.00
197, 30091.46, 19990.62, 19144.20, -3704.44, -14374.21, -729.83, 2325.56, -12395.14, 0.00, 0.00, 0.00
198, 30103.13, 20001.41, 19142.39, -3728.32, -14287.75, -760.16, 2330.55, -12422.25, 0.00, 0.00, 0.00
199, 30097.94, 19999.40, 19121.31, -3748.70, -14290.12, -768.34, 2316.51, -12433.11, 0.00, 0.00, 0.00
200, 30090.45, 19992.94, 19118.36, -3726.19, -14380.51, -734.17, 2311.84, -12409.84, 0.00, 0.00, 0.00
201, 30091.35, 19992.61, 19134.70, -3704.62, -14400.16, -722.63, 2320.69, -12385.82, 0.00, 0.00, 0.00
202, 30100.38, 19998.20, 19137.81, -3723.44, -14306.57, -755.15, 2327.44, -12409.60, 0.00, 0.00, 0.00
203, 30092.62, 19995.58, 19114.05, -3752.39, -14277.20, -770.53, 2311.01, -12441.81, 0.00, 0.00, 0.00
204, 30082.70, 19988.07, 19107.54, -3734.66, -14365.89, -741.34, 2299.57, -12426.70, 0.00, 0.00, 0.00
205, 30078.27, 19984.67, 19123.73, -3707.98, -14412.45, -726.01, 2303.35, -12404.68, 0.07, 0.97, 0.17
206, 30094.79, 19997.28, 19141.23, -3709.52, -14319.51, -742.35, 2319.19, -12409.78, 0.00, 0.00, 0.00
207, 30089.34, 19989.57, 19120.75, -3740.72, -14264.44, -767.54, 2306.57, -12441.29, 0.00, 0.00, 0.00
208, 30080.84, 19983.04, 19112.37, -3729.41, -14338.20, -743.31, 2297.42, -12429.20, 0.00, 0.00, 0.00
209, 30076.69, 19977.07, 19125.00, -3702.41, -14403.78, -717.63, 2301.65, -12402.83, 0.00, 0.00, 0.00
210, 30076.04, 19974.88, 19130.66, -3714.75, -14344.03, -743.04, 2302.34, -12417.22, 0.00, 0.00, 0.00
211, 30075.57, 19975.33, 19113.29, -3749.42, -14265.93, -773.86, 2293.76, -12450.97, 0.00, 0.00, 0.00
212, 30065.91, 19969.09, 19095.63, -3752.86, -14305.83, -756.41, 2283.03, -12444.42, 0.00, 0.00, 0.00
213, 30058.60, 19964.89, 19109.87, -3724.18, -14393.23, -725.67, 2286.54, -12414.16, 0.00, 0.00, 0.00
214, 30066.85, 19966.86, 19127.46, -3723.71, -14362.47, -737.14, 2292.66, -12418.94, 0.00, 0.00, 0.00
215, 30072.46, 19970.72, 19118.65, -3752.88, -14272.19, -767.42, 2290.25, -12450.73, 0.07, 0.97, 0.18
216, 30064.26, 19963.68, 19103.72, -3758.56, -14305.16, -759.00, 2277.46, -12447.10, 0.00, 0.00, 0.00
217, 30052.23, 19952.48, 19112.19, -3732.23, -14397.52, -727.50, 2273.75, -12422.61, 0.00, 0.00, 0.00
218, 30055.79, 19951.19, 19127.13, -3722.06, -14375.90, -729.74, 2283.05, -12419.32, 0.00, 0.00, 0.00
219, 30061.17, 19954.54, 19117.83, -3750.78, -14282.18, -761.01, 2279.36, -12445.32, 0.00, 0.00, 0.00
220, 30055.18, 19950.76, 19094.47, -3764.75, -14291.97, -761.50, 2261.93, -12459.00, 0.00, 0.00, 0.00
221, 30051.52, 19952.20, 19101.11, -3733.43, -14382.14, -720.28, 2263.52, -12430.12, 0.00, 0.00, 0.00
222, 30047.02, 19947.46, 19116.69, -3718.19, -14386.23, -717.87, 2269.71, -12420.28, 0.00, 0.00, 0.00
223, 30048.41, 19950.00, 19110.65, -3746.17, -14292.22, -753.23, 2269.57, -12449.45, 0.00, 0.00, 0.00
224, 30045.19, 19947.34, 19086.45, -3773.69, -14279.77, -766.42, 2255.13, -12473.75, 0.00, 0.00, 0.00
225, 30041.15, 19943.75, 19091.99, -3750.06, -14368.24, -731.42, 2251.94, -12450.75, 0.07, 0.97, 0.17
226, 30047.40, 19946.61, 19118.36, -3721.05, -14387.82, -711.95, 2262.89, -12424.89, 0.00, 0.00, 0.00
227, 30046.80, 19943.88, 19109.94, -3747.52, -14291.86, -749.21, 2256.59, -12450.03, 0.00, 0.00, 0.00
228, 30047.47, 19946.92, 19093.24, -3769.29, -14259.05, -764.36, 2248.32, -12475.78, 0.00, 0.00, 0.00
229, 30046.58, 19951.21, 19098.36, -3743.63, -14349.39, -730.21, 2245.03, -12444.56, 0.00, 0.00, 0.00
230, 30050.33, 19951.90, 19116.42, -3711.64, -14398.05, -706.38, 2254.73, -12416.59, 0.00, 0.00, 0.00
231, 30057.69, 19956.60, 19126.05, -3717.70, -14316.36, -726.86, 2267.00, -12430.05, 0.00, 0.00, 0.00
232, 30053.13, 19953.07, 19101.91, -3749.59, -14258.38, -758.15, 2251.25, -12466.35, 0.00, 0.00, 0.00
233, 30041.30, 19945.78, 19087.36, -3742.33, -14330.60, -739.44, 2236.52, -12462.48, 0.00, 0.00, 0.00
234, 30044.50, 19947.90, 19107.66, -3707.06, -14396.45, -706.83, 2247.36, -12429.04, 0.00, 0.00, 0.00
235, 30047.87, 19946.61, 19114.59, -3717.85, -14339.18, -729.47, 2253.10, -12439.55, 0.07, 0.97, 0.17
236, 30047.61, 19949.58, 19097.73, -3755.41, -14264.35, -765.30, 2240.52, -12477.50, 0.00, 0.00, 0.00
237, 30049.93, 19950.90, 19089.62, -3756.14, -14311.04, -749.36, 2229.45, -12474.98, 0.00, 0.00, 0.00
238, 30048.99, 19945.31, 19102.18, -3727.09, -14394.12, -713.67, 2233.90, -12443.71, 0.00, 0.00, 0.00
239, 30055.23, 19946.18, 19115.66, -3725.05, -14355.99, -725.02, 2239.80, -12447.28, 0.00, 0.00, 0.00
240, 30058.83, 19946.85, 19103.52, -3758.87, -14267.10, -758.95, 2232.74, -12479.43, 0.00, 0.00, 0.00
241, 30048.43, 19942.40, 19083.16, -3770.90, -14296.02, -756.29, 2215.50, -12484.37, 0.00, 0.00, 0.00
242, 30045.73, 19940.75, 19091.74, -3738.89, -14386.57, -719.15, 2216.06, -12446.66, 0.00, 0.00, 0.00
243, 30054.85, 19947.88, 19110.00, -3721.48, -14357.82, -716.28, 2230.73, -12434.28, 0.00, 0.00, 0.00
244, 30056.75, 19951.46, 19096.62, -3751.47, -14255.32, -749.48, 2229.99, -12466.39, 0.00, 0.00, 0.00
245, 30058.02, 19954.05, 19080.32, -3763.68, -14273.69, -750.73, 2217.14, -12472.88, 0.07, 0.97, 0.17
246, 30045.82, 19943.43, 19081.21, -3741.12, -14376.84, -717.80, 2211.82, -12456.05, 0.00, 0.00, 0.00
247, 30036.74, 19931.23, 19090.24, -3734.28, -14396.02, -723.91, 2208.75, -12443.66, 0.00, 0.00, 0.00
248, 30059.16, 19950.74, 19106.23, -3741.26, -14284.15, -743.26, 2226.48, -12454.30, 0.00, 0.00, 0.00
249, 30051.23, 19949.02, 19084.37, -3762.65, -14262.09, -754.73, 2211.28, -12476.79, 0.00, 0.00, 0.00
250, 30040.30, 19942.00, 19081.39, -3738.64, -14353.73, -719.32, 2206.81, -12440.80, 0.00, 0.00, 0.00
251, 30041.06, 19943.43, 19100.44, -3713.00, -14388.24, -701.33, 2215.77, -12419.95, 0.00, 0.00, 0.00
252, 30043.65, 19944.19, 19100.35, -3734.89, -14305.43, -733.47, 2217.47, -12449.29, 0.00, 0.00, 0.00
253, 30041.10, 19946.92, 19082.15, -3762.85, -14255.88, -752.74, 2207.61, -12479.92, 0.00, 0.00, 0.00
254, 30038.98, 19947.50, 19080.95, -3747.96, -14331.38, -720.93, 2202.05, -12458.71, 0.00, 0.00, 0.00
255, 30034.71, 19938.56, 19096.53, -3723.71, -14385.29, -697.98, 2210.05, -12433.87, 0.07, 0.97, 0.17
0, 30033.79, 19936.46, 19099.77, -3739.58, -14316.16, -731.08, 2210.79, -12455.78, 0.00, 0.00, 0.00
1, 30039.34, 19942.96, 19088.75, -3766.76, -14249.50, -754.95, 2204.26, -12482.60, 0.00, 0.00, 0.00
2, 30025.77, 19929.80, 19074.55, -3767.16, -14314.50, -733.41, 2192.55, -12481.59, 0.00, 0.00, 0.00
3, 30019.15, 19923.90, 19089.35, -3734.06, -14387.46, -701.35, 2195.63, -12443.84, 0.00, 0.00, 0.00
4, 30023.00, 19926.71, 19099.07, -3733.10, -14320.40, -717.29, 2202.41, -12446.59, 0.00, 0.00, 0.00
5, 30024.70, 19930.51, 19082.31, -3765.02, -14241.35, -747.91, 2193.62, -12483.56, 0.00, 0.00, 0.00
6, 30020.54, 19927.38, 19070.04, -3769.42, -14303.80, -737.41, 2175.38, -12488.66, 0.00, 0.00, 0.00
7, 30016.07, 19923.29, 19084.84, -3739.00, -14390.81, -704.50, 2181.33, -12460.78, 0.00, 0.00, 0.00
8, 30019.62, 19924.17, 19103.48, -3732.29, -14355.09, -710.65, 2194.02, -12451.98, 0.00, 0.00, 0.00
9, 30027.40, 19927.23, 19092.72, -3764.95, -14263.12, -744.18, 2188.97, -12482.29, 0.07, 0.97, 0.17
10, 30020.78, 19924.97, 19075.31, -3776.17, -14283.35, -741.88, 2173.91, -12494.94, 0.00, 0.00, 0.00
11, 30012.60, 19917.77, 19084.23, -3745.75, -14372.01, -704.08, 2176.88, -12465.10, 0.00, 0.00, 0.00
12, 30009.70, 19911.76, 19094.18, -3737.77, -14368.19, -705.94, 2183.41, -12458.48, 0.00, 0.00, 0.00
13, 30017.52, 19919.18, 19089.91, -3761.49, -14269.82, -735.60, 2185.98, -12479.85, 0.00, 0.00, 0.00
14, 30017.41, 19925.26, 19076.03, -3775.19, -14260.55, -734.68, 2179.21, -12491.09, 0.00, 0.00, 0.00
15, 30012.87, 19922.02, 19076.97, -3749.42, -14350.94, -697.64, 2175.70, -12465.23, 0.00, 0.00, 0.00
16, 30019.02, 19923.41, 19092.84, -3724.14, -14358.22, -685.95, 2186.98, -12450.59, 0.00, 0.00, 0.00
17, 30021.61, 19925.08, 19084.99, -3748.41, -14258.45, -721.49, 2187.72, -12476.88, 0.00, 0.00, 0.00
18, 30015.80, 19925.95, 19067.49, -3773.71, -14244.45, -730.92, 2170.51, -12503.57, 0.07, 0.97, 0.17
19, 30008.29, 19928.10, 19070.96, -3751.00, -14340.97, -692.50, 2160.59, -12484.88, 0.00, 0.00, 0.00
20, 30013.14, 19929.24, 19095.50, -3719.31, -14375.84, -669.77, 2172.43, -12451.20, 0.00, 0.00, 0.00
21, 30019.87, 19930.74, 19097.44, -3736.61, -14289.45, -697.46, 2183.27, -12467.87, 0.00, 0.00, 0.00
22, 30011.26, 19927.23, 19070.31, -3775.41, -14241.39, -727.10, 2165.19, -12509.26, 0.00, 0.00, 0.00
23, 30006.61, 19923.70, 19062.86, -3765.29, -14316.49, -705.13, 2155.18, -12503.36, 0.00, 0.00, 0.00
24, 30007.75, 19923.92, 19079.65, -3734.24, -14376.60, -680.52, 2163.20, -12474.31, 0.00, 0.00, 0.00
25, 30013.97, 19926.04, 19083.36, -3747.09, -14308.02, -706.29, 2168.52, -12485.06, 0.00, 0.00, 0.00
26, 30010.55, 19926.22, 19060.52, -3785.60, -14239.76, -740.78, 2158.15, -12515.99, 0.00, 0.00, 0.00
27, 30005.29, 19925.82, 19048.96, -3781.40, -14288.89, -719.66, 2149.43, -12509.42, 0.00, 0.00, 0.00
28, 30002.70, 19924.54, 19062.88, -3749.17, -14360.73, -682.44, 2153.59, -12477.55, 0.07, 0.97, 0.17
29, 30006.19, 19923.74, 19078.53, -3748.41, -14330.24, -696.19, 2158.60, -12472.79, 0.00, 0.00, 0.00
30, 30005.07, 19922.00, 19062.06, -3784.02, -14260.12, -735.35, 2144.07, -12515.57, 0.00, 0.00, 0.00
31, 29999.77, 19921.91, 19051.96, -3784.64, -14291.12, -719.82, 2134.44, -12515.88, 0.00, 0.00, 0.00
32, 29993.65, 19918.38, 19064.29, -3751.27, -14379.41, -682.67, 2135.66, -12482.62, 0.00, 0.00, 0.00
33, 29995.37, 19918.51, 19078.00, -3743.87, -14351.14, -688.37, 2144.29, -12479.81, 0.00, 0.00, 0.00
34, 30001.58, 19921.66, 19067.91, -3776.75, -14255.25, -727.21, 2138.53, -12513.45, 0.00, 0.00, 0.00
35, 29995.28, 19914.49, 19046.37, -3795.84, -14268.71, -729.78, 2123.37, -12528.00, 0.00, 0.00, 0.00
36, 29985.51, 19908.50, 19051.60, -3767.21, -14356.06, -691.23, 2126.63, -12496.46, 0.00, 0.00, 0.00
37, 29987.95, 19908.97, 19065.08, -3752.99, -14342.13, -693.82, 2133.36, -12486.85, 0.00, 0.00, 0.00
38, 29991.77, 19910.40, 19058.57, -3780.78, -14256.75, -727.75, 2131.37, -12512.82, 0.08, 0.97, 0.17
39, 29989.29, 19909.62, 19041.45, -3797.56, -14262.63, -735.22, 2116.67, -12534.54, 0.00, 0.00, 0.00
40, 29985.58, 19907.80, 19043.08, -3772.21, -14356.37, -699.52, 2111.57, -12514.34, 0.00, 0.00, 0.00
41, 29989.38, 19909.64, 19065.88, -3742.71, -14375.26, -682.71, 2123.39, -12492.99, 0.00, 0.00, 0.00
42, 29993.92, 19915.02, 19066.80, -3760.01, -14279.23, -714.27, 2130.88, -12511.70, 0.00, 0.00, 0.00
43, 29986.12, 19908.81, 19040.96, -3793.25, -14243.36, -737.41, 2119.66, -12536.80, 0.00, 0.00, 0.00
44, 29978.79, 19898.21, 19039.28, -3780.13, -14325.48, -709.82, 2120.67, -12519.88, 0.00, 0.00, 0.00
45, 29974.38, 19893.70, 19056.16, -3756.64, -14363.32, -691.09, 2133.68, -12495.76, 0.00, 0.00, 0.00
46, 29979.05, 19896.34, 19063.27, -3770.45, -14266.34, -717.02, 2149.01, -12508.64, 0.00, 0.00, 0.00
47, 29977.44, 19899.51, 19049.88, -3801.56, -14222.17, -745.14, 2138.59, -12544.98, 0.00, 0.00, 0.00
48, 29966.38, 19890.55, 19040.58, -3797.61, -14310.50, -726.41, 2119.62, -12536.51, 0.07, 0.98, 0.18
49, 29964.75, 19886.08, 19054.35, -3769.06, -14378.34, -696.66, 2123.30, -12501.53, 0.00, 0.00, 0.00
50, 29983.08, 19902.26, 19075.85, -3762.02, -14302.14, -701.38, 2142.73, -12496.21, 0.00, 0.00, 0.00
51, 29977.98, 19899.11, 19052.98, -3798.03, -14231.04, -733.11, 2129.92, -12539.04, 0.00, 0.00, 0.00
52, 29967.83, 19894.04, 19035.10, -3798.90, -14287.97, -717.58, 2115.84, -12536.74, 0.00, 0.00, 0.00
53, 29963.23, 19889.23, 19047.89, -3767.74, -14367.97, -684.12, 2120.51, -12500.39, 0.00, 0.00, 0.00
54, 29967.27, 19890.57, 19064.67, -3764.28, -14322.46, -695.52, 2129.38, -12502.47, 0.00, 0.00, 0.00
55, 29969.42, 19893.97, 19053.19, -3795.73, -14234.28, -731.71, 2122.32, -12538.84, 0.00, 0.00, 0.00
56, 29963.56, 19890.97, 19033.87, -3806.55, -14267.50, -729.18, 2104.80, -12549.79, 0.00, 0.00, 0.00
57, 29960.48, 19891.58, 19045.85, -3770.52, -14355.65, -690.51, 2108.62, -12517.54, 0.00, 0.00, 0.00
58, 29964.88, 19891.87, 19059.98, -3758.11, -14335.76, -696.19, 2117.20, -12513.65, 0.07, 0.98, 0.18
59, 29971.63, 19894.84, 19051.44, -3787.10, -14226.77, -733.65, 2115.70, -12544.49, 0.00, 0.00, 0.00
60, 29960.97, 19889.72, 19032.58, -3805.00, -14241.77, -736.09, 2098.40, -12560.61, 0.00, 0.00, 0.00
61, 29955.34, 19886.41, 19042.19, -3774.87, -14350.49, -699.05, 2094.20, -12541.32, 0.00, 0.00, 0.00
62, 29956.43, 19884.74, 19058.39, -3755.58, -14356.70, -691.97, 2104.01, -12527.88, 0.00, 0.00, 0.00
63, 29963.16, 19888.94, 19056.38, -3775.34, -14256.72, -717.58, 2109.60, -12532.00, 0.00, 0.00, 0.00
64, 29956.88, 19887.82, 19030.97, -3802.46, -14240.79, -729.76, 2091.63, -12554.97, 0.00, 0.00, 0.00
65, 29953.55, 19887.31, 19026.81, -3784.08, -14334.35, -696.23, 2079.00, -12536.96, 0.00, 0.00, 0.00
66, 29957.51, 19889.10, 19044.33, -3761.53, -14363.66, -683.40, 2088.75, -12516.28, 0.00, 0.00, 0.00
67, 29966.47, 19895.94, 19042.88, -3782.50, -14277.13, -717.98, 2091.41, -12540.63, 0.00, 0.00, 0.00
68, 29959.90, 19891.20, 19016.30, -3817.92, -14238.75, -743.04, 2075.78, -12575.92, 0.08, 0.97, 0.17
69, 29952.03, 19888.36, 19010.31, -3805.76, -14321.48, -718.05, 2067.63, -12563.27, 0.00, 0.00, 0.00
70, 29948.36, 19884.74, 19024.80, -3780.31, -14373.83, -696.99, 2074.31, -12537.29, 0.00, 0.00, 0.00
71, 29951.78, 19887.44, 19032.24, -3793.45, -14292.71, -721.49, 2082.91, -12550.97, 0.00, 0.00, 0.00
72, 29955.56, 19890.91, 19015.43, -3822.37, -14217.99, -742.79, 2078.69, -12582.53, 0.00, 0.00, 0.00
73, 29946.35, 19888.43, 19003.36, -3814.97, -14275.99, -718.59, 2072.32, -12566.58, 0.00, 0.00, 0.00
74, 29943.89, 19883.93, 19020.46, -3782.61, -14360.24, -684.75, 2078.67, -12533.14, 0.00, 0.00, 0.00
75, 29949.79, 19886.17, 19025.76, -3787.79, -14315.44, -703.97, 2080.57, -12547.98, 0.00, 0.00, 0.00
76, 29951.85, 19888.83, 19006.09, -3820.05, -14239.04, -739.02, 2069.97, -12583.05, 0.00, 0.00, 0.00
77, 29948.21, 19887.38, 18996.52, -3815.91, -14287.21, -723.75, 2058.42, -12578.91, 0.00, 0.00, 0.00
78, 29947.87, 19890.95, 19011.90, -3778.36, -14369.40, -685.01, 2062.02, -12545.83, 0.07, 0.97, 0.17
79, 29959.36, 19900.85, 19035.28, -3764.61, -14328.12, -691.61, 2075.78, -12537.72, 0.00, 0.00, 0.00
80, 29956.32, 19897.37, 19023.14, -3799.26, -14240.70, -729.99, 2065.01, -12579.25, 0.00, 0.00, 0.00
81, 29949.95, 19891.00, 19006.60, -3808.31, -14269.73, -727.33, 2048.40, -12591.32, 0.00, 0.00, 0.00
82, 29945.05, 19886.03, 19016.84, -3776.80, -14359.92, -689.98, 2051.42, -12562.31, 0.00, 0.00, 0.00
83, 29950.85, 19887.91, 19033.05, -3765.62, -14344.81, -692.37, 2064.05, -12545.50, 0.00, 0.00, 0.00
84, 29957.26, 19891.93, 19026.92, -3795.01, -14243.56, -723.17, 2069.32, -12570.04, 0.00, 0.00, 0.00
85, 29946.49, 19883.20, 19002.07, -3821.30, -14245.15, -731.44, 2052.02, -12591.79, 0.00, 0.00, 0.00
86, 29941.84, 19881.34, 19006.56, -3796.71, -14320.61, -694.78, 2052.45, -12562.86, 0.00, 0.00, 0.00
87, 29944.18, 19879.82, 19025.04, -3777.74, -14332.32, -685.15, 2065.39, -12546.84, 0.00, 0.00, 0.00
88, 29951.20, 19883.93, 19026.77, -3799.51, -14255.23, -717.85, 2063.58, -12575.11, 0.07, 0.97, 0.16
89, 29945.73, 19882.55, 19007.59, -3820.90, -14236.59, -729.85, 2049.36, -12595.34, 0.00, 0.00, 0.00
90, 29936.65, 19878.50, 19007.88, -3796.64, -14322.64, -697.17, 2043.75, -12578.76, 0.00, 0.00, 0.00
91, 29939.78, 19876.91, 19027.88, -3768.26, -14357.33, -682.26, 2049.74, -12559.78, 0.00, 0.00, 0.00
92, 29947.54, 19880.51, 19028.13, -3786.32, -14272.48, -712.06, 2052.40, -12568.21, 0.00, 0.00, 0.00
93, 29945.82, 19880.04, 19007.72, -3814.62, -14221.97, -731.37, 2042.70, -12595.45, 0.00, 0.00, 0.00
94, 29934.86, 19874.19, 18998.11, -3807.62, -14300.56, -704.21, 2032.60, -12585.69, 0.00, 0.00, 0.00
95, 29930.82, 19874.37, 19017.04, -3778.29, -14348.32, -679.40, 2042.19, -12556.94, 0.00, 0.00, 0.00
96, 29928.89, 19869.49, 19014.79, -3796.47, -14270.45, -706.52, 2046.57, -12574.17, 0.00, 0.00, 0.00
97, 29935.40, 19876.36, 19005.26, -3822.46, -14212.94, -728.29, 2043.20, -12598.27, 0.00, 0.00, 0.00
98, 29931.53, 19877.70, 18997.46, -3815.76, -14283.61, -707.57, 2033.47, -12593.35, 0.07, 0.97, 0.16
99, 29932.94, 19877.72, 19016.10, -3784.53, -14356.68, -681.26, 2038.21, -12564.79, 0.00, 0.00, 0.00
100, 29940.23, 19880.83, 19032.06, -3784.93, -14301.85, -696.46, 2049.14, -12557.81, 0.00, 0.00, 0.00
101, 29939.51, 19880.18, 19017.20, -3818.06, -14220.98, -734.75, 2040.80, -12598.69, 0.00, 0.00, 0.00
102, 29936.79, 19879.04, 19006.83, -3816.25, -14261.96, -725.05, 2026.79, -12609.11, 0.00, 0.00, 0.00
103, 29931.67, 19876.69, 19017.18, -3782.23, -14351.56, -686.18, 2026.61, -12565.48, 0.00, 0.00, 0.00
104, 29938.30, 19880.00, 19034.68, -3768.01, -14319.29, -685.17, 2036.87, -12551.82, 0.00, 0.00, 0.00
105, 29941.88, 19881.90, 19024.31, -3794.41, -14225.43, -717.85, 2031.19, -12590.22, 0.00, 0.00, 0.00
106, 29940.32, 19879.04, 19008.24, -3801.00, -14235.07, -716.73, 2020.96, -12599.97, 0.00, 0.00, 0.00
107, 29933.21, 19876.11, 19014.65, -3770.83, -14314.88, -675.92, 2023.64, -12568.21, 0.08, 0.97, 0.17
108, 29940.32, 19882.52, 19037.45, -3752.88, -14318.17, -671.80, 2035.15, -12551.04, 0.00, 0.00, 0.00
109, 29942.80, 19881.23, 19029.11, -3787.19, -14229.72, -706.09, 2037.74, -12580.03, 0.00, 0.00, 0.00
110, 29933.86, 19876.02, 19002.04, -3817.43, -14227.91, -720.42, 2021.40, -12604.21, 0.00, 0.00, 0.00
111, 29928.09, 19875.35, 19000.32, -3797.47, -14318.91, -685.48, 2019.12, -12579.83, 0.00, 0.00, 0.00
112, 29934.08, 19877.49, 19017.45, -3774.20, -14335.09, -673.55, 2030.66, -12557.92, 0.00, 0.00, 0.00
113, 29941.57, 19881.38, 19015.30, -3797.76, -14244.01, -704.42, 2031.46, -12583.67, 0.00, 0.00, 0.00
114, 29938.17, 19878.90, 18991.63, -3828.90, -14216.54, -725.07, 2013.85, -12613.65, 0.00, 0.00, 0.00
115, 29928.58, 19870.83, 18987.74, -3813.19, -14303.10, -694.56, 2004.57, -12598.34, 0.00, 0.00, 0.00
116, 29928.40, 19869.11, 19009.29, -3784.98, -14343.61, -674.53, 2013.09, -12577.39, 0.00, 0.00, 0.00
117, 29936.21, 19876.15, 19016.86, -3796.35, -14259.56, -697.75, 2019.93, -12582.71, 0.07, 0.98, 0.17
118, 29937.59, 19877.58, 18996.10, -3823.11, -14206.79, -718.81, 2008.53, -12605.24, 0.00, 0.00, 0.00
119, 29927.35, 19871.84, 18984.92, -3811.51, -14282.85, -694.98, 1998.27, -12594.45, 0.00, 0.00, 0.00
120, 29918.68, 19862.92, 18997.71, -3781.27, -14346.82, -674.35, 1999.50, -12572.59, 0.00, 0.00, 0.00
121, 29925.21, 19866.14, 19010.47, -3781.29, -14263.72, -690.96, 2013.69, -12578.47, 0.00, 0.00, 0.00
122, 29940.52, 19876.38, 19006.07, -3804.31, -14196.53, -713.42, 2011.50, -12603.97, 0.00, 0.00, 0.00
123, 29936.27, 19875.82, 18991.03, -3805.18, -14272.68, -698.51, 1993.64, -12604.28, 0.00, 0.00, 0.00
124, 29932.52, 19878.30, 19008.48, -3767.14, -14347.47, -665.32, 2005.91, -12568.59, 0.00, 0.00, 0.00
125, 29927.31, 19873.58, 19030.70, -3756.97, -14291.10, -673.19, 2027.82, -12560.72, 0.00, 0.00, 0.00
126, 29930.77, 19875.71, 19020.13, -3789.00, -14206.88, -710.72, 2021.13, -12597.76, 0.00, 0.00, 0.00
127, 29931.29, 19877.72, 19001.78, -3797.25, -14247.94, -708.59, 2005.13, -12611.05, 0.07, 0.98, 0.17
128, 29938.19, 19877.96, 19015.37, -3761.64, -14334.02, -674.78, 2009.78, -12578.96, 0.00, 0.00, 0.00
129, 29959.47, 19894.79, 19043.02, -3739.36, -14302.34, -675.60, 2028.38, -12551.33, 0.00, 0.00, 0.00
130, 29971.54, 19905.86, 19034.21, -3771.21, -14207.55, -712.06, 2027.64, -12584.84, 0.00, 0.00, 0.00
131, 29976.37, 19911.47, 19016.33, -3785.49, -14220.20, -715.64, 2017.31, -12598.65, 0.00, 0.00, 0.00
132, 29983.23, 19915.27, 19026.01, -3752.16, -14310.82, -674.44, 2022.97, -12565.86, 0.00, 0.00, 0.00
133, 29991.32, 19917.86, 19044.00, -3736.30, -14311.02, -667.29, 2036.18, -12544.94, 0.00, 0.00, 0.00
134, 30003.48, 19925.82, 19039.64, -3760.66, -14212.42, -700.41, 2043.08, -12568.70, 0.00, 0.00, 0.00
135, 30002.59, 19924.70, 19011.74, -3787.64, -14200.58, -714.16, 2030.95, -12584.70, 0.00, 0.00, 0.00
136, 30003.95, 19924.17, 19010.63, -3762.07, -14290.68, -680.30, 2030.83, -12552.76, 0.00, 0.00, 0.00
137, 30011.60, 19929.15, 19025.29, -3734.64, -14316.49, -665.88, 2041.12, -12529.36, 0.07, 0.98, 0.18
138, 30023.40, 19932.90, 19021.56, -3754.42, -14231.71, -701.53, 2037.52, -12556.03, 0.00, 0.00, 0.00
139, 30031.00, 19935.27, 19003.36, -3780.02, -14180.17, -718.50, 2025.09, -12578.44, 0.00, 0.00, 0.00
140, 30034.42, 19941.06, 19009.82, -3757.22, -14265.26, -683.96, 2025.31, -12547.58, 0.00, 0.00, 0.00
141, 30037.12, 19941.96, 19034.03, -3728.54, -14325.70, -660.02, 2037.67, -12514.07, 0.00, 0.00, 0.00
142, 30043.20, 19939.41, 19034.81, -3748.83, -14251.65, -688.79, 2040.69, -12527.50, 0.00, 0.00, 0.00
143, 30043.72, 19939.01, 19014.56, -3782.88, -14192.64, -721.07, 2029.07, -12560.70, 0.00, 0.00, 0.00
144, 30042.71, 19944.39, 19010.34, -3770.65, -14255.47, -697.20, 2024.58, -12544.94, 0.00, 0.00, 0.00
145, 30043.00, 19943.21, 19023.52, -3741.73, -14321.48, -669.48, 2028.98, -12505.04, 0.00, 0.00, 0.00
146, 30051.47, 19947.12, 19034.32, -3744.52, -14259.97, -685.95, 2037.58, -12509.09, 0.00, 0.00, 0.00
147, 30058.11, 19952.42, 19018.83, -3774.47, -14185.24, -713.96, 2029.67, -12542.50, 0.07, 0.97, 0.18
148, 30054.31, 19952.15, 19003.45, -3774.18, -14241.32, -702.27, 2013.02, -12550.35, 0.00, 0.00, 0.00
149, 30054.76, 19951.66, 19017.24, -3740.21, -14325.57, -669.26, 2015.99, -12516.64, 0.00, 0.00, 0.00
150, 30064.41, 19958.50, 19032.64, -3732.61, -14285.67, -676.72, 2028.33, -12503.83, 0.00, 0.00, 0.00
151, 30068.15, 19961.36, 19019.57, -3764.79, -14200.15, -708.84, 2024.00, -12529.38, 0.00, 0.00, 0.00
152, 30054.85, 19953.36, 18993.13, -3778.94, -14235.45, -710.14, 2004.19, -12544.54, 0.00, 0.00, 0.00
153, 30055.52, 19957.65, 19003.77, -3741.59, -14301.23, -668.72, 2015.14, -12507.52, 0.00, 0.00, 0.00
154, 30059.43, 19962.34, 19017.65, -3732.00, -14288.02, -669.64, 2028.71, -12495.14, 0.00, 0.00, 0.00
156, 30062.11, 19960.08, 18985.19, -3791.46, -14216.56, -709.58, 2012.71, -12538.64, 0.00, 0.00, 0.00
157, 30057.60, 19956.82, 18989.01, -3771.48, -14308.71, -674.51, 2011.28, -12511.86, 0.06, 0.97, 0.18
158, 30061.02, 19959.82, 19005.11, -3759.61, -14317.70, -668.74, 2021.87, -12497.35, 0.00, 0.00, 0.00
159, 30068.15, 19963.37, 19005.42, -3781.45, -14220.16, -702.54, 2025.58, -12522.65, 0.00, 0.00, 0.00
160, 30063.43, 19960.06, 18985.26, -3805.14, -14202.79, -716.80, 2007.19, -12552.07, 0.00, 0.00, 0.00
161, 30053.64, 19953.24, 18985.97, -3784.80, -14295.97, -685.26, 2000.24, -12525.31, 0.00, 0.00, 0.00
162, 30056.90, 19953.65, 19007.86, -3757.31, -14327.27, -667.53, 2012.82, -12499.34, 0.00, 0.00, 0.00
163, 30060.21, 19951.81, 19009.78, -3776.48, -14239.56, -695.68, 2016.86, -12521.94, 0.00, 0.00, 0.00
164, 30055.09, 19950.14, 18991.34, -3803.75, -14195.48, -717.98, 2002.76, -12550.57, 0.00, 0.00, 0.00
165, 30050.24, 19946.90, 18983.74, -3787.93, -14275.54, -687.72, 1993.35, -12522.72, 0.00, 0.00, 0.00
166, 30050.09, 19942.81, 19001.69, -3756.61, -14328.34, -664.56, 2001.78, -12493.04, 0.00, 0.00, 0.00
167, 30056.63, 19944.21, 19007.65, -3766.81, -14239.11, -684.88, 2012.13, -12511.66, 0.07, 0.97, 0.17
168, 30053.04, 19942.65, 18985.86, -3797.99, -14176.10, -712.17, 2002.43, -12541.74, 0.00, 0.00, 0.00
169, 30047.45, 19941.24, 18982.51, -3783.77, -14254.04, -686.76, 1994.18, -12530.52, 0.00, 0.00, 0.00
170, 30052.79, 19942.70, 19004.68, -3745.64, -14321.59, -651.33, 2004.39, -12496.84, 0.00, 0.00, 0.00
171, 30055.03, 19941.58, 19009.33, -3758.04, -14268.33, -676.50, 2007.48, -12506.23, 0.00, 0.00, 0.00
172, 30051.49, 19937.49, 18989.30, -3798.68, -14195.08, -715.01, 1994.00, -12536.56, 0.00, 0.00, 0.00
173, 30046.80, 19935.36, 18973.61, -3803.98, -14240.88, -702.38, 1981.46, -12534.46, 0.00, 0.00, 0.00
174, 30053.01, 19943.70, 18993.86, -3767.88, -14314.86, -660.09, 1992.52, -12500.48, 0.00, 0.00, 0.00
175, 30060.39, 19947.37, 19008.24, -3763.90, -14281.45, -668.61, 2001.53, -12498.45, 0.00, 0.00, 0.00
176, 30064.68, 19950.09, 18995.88, -3793.96, -14191.26, -703.32, 1997.49, -12533.27, 0.00, 0.00, 0.00
177, 30061.35, 19950.59, 18980.30, -3799.55, -14212.24, -699.59, 1984.05, -12542.59, 0.08, 0.96, 0.17
178, 30055.52, 19947.28, 18986.20, -3769.78, -14301.85, -660.96, 1987.34, -12511.52, 0.00, 0.00, 0.00
179, 30061.08, 19946.90, 19001.29, -3752.16, -14286.63, -658.86, 2001.80, -12496.73, 0.00, 0.00, 0.00
180, 30063.61, 19948.78, 18989.91, -3781.49, -14192.28, -694.87, 1997.62, -12529.07, 0.00, 0.00, 0.00
181, 30062.42, 19951.57, 18975.31, -3797.78, -14187.39, -698.94, 1982.87, -12546.32, 0.00, 0.00, 0.00
182, 30054.94, 19944.60, 18977.88, -3775.01, -14265.15, -666.89, 1978.11, -12523.10, 0.00, 0.00, 0.00
183, 30055.41, 19945.60, 18995.38, -3755.38, -14290.05, -659.24, 1982.80, -12507.34, 0.00, 0.00, 0.00
184, 30062.51, 19948.64, 18996.57, -3776.60, -14209.92, -686.56, 1985.19, -12529.52, 0.00, 0.00, 0.00
185, 30057.42, 19941.31, 18975.76, -3804.47, -14188.02, -702.31, 1970.80, -12555.24, 0.00, 0.00, 0.00
186, 30050.98, 19933.89, 18978.69, -3783.30, -14270.85, -667.00, 1969.59, -12528.98, 0.07, 0.96, 0.17
187, 30051.83, 19932.77, 19003.70, -3754.80, -14303.01, -641.47, 1984.03, -12502.72, 0.00, 0.00, 0.00
188, 30051.18, 19926.98, 19001.64, -3778.03, -14221.03, -674.96, 1988.48, -12529.52, 0.00, 0.00, 0.00
189, 30042.11, 19918.94, 18977.39, -3811.84, -14176.03, -704.82, 1971.49, -12557.97, 0.00, 0.00, 0.00
190, 30037.21, 19918.60, 18973.46, -3796.22, -14250.40, -677.41, 1963.02, -12536.29, 0.00, 0.00, 0.00
191, 30033.21, 19914.08, 18981.35, -3770.67, -14313.01, -656.52, 1965.66, -12519.90, 0.00, 0.00, 0.00
192, 30041.50, 19920.28, 18985.82, -3778.47, -14247.65, -683.27, 1968.34, -12534.70, 0.00, 0.00, 0.00
193, 30040.01, 19922.87, 18965.70, -3812.47, -14181.98, -711.81, 1957.16, -12572.68, 0.00, 0.00, 0.00
194, 30035.80, 19919.52, 18956.58, -3809.43, -14241.53, -688.30, 1948.74, -12560.47, 0.00, 0.00, 0.00
195, 30028.41, 19907.98, 18967.73, -3786.45, -14321.77, -661.28, 1950.55, -12530.63, 0.00, 0.00, 0.00
196, 30025.88, 19904.79, 18977.50, -3789.78, -14269.22, -677.06, 1961.70, -12537.63, 0.07, 0.96, 0.18
197, 30034.33, 19914.35, 18970.77, -3814.48, -14162.04, -698.54, 1969.03, -12556.94, 0.00, 0.00, 0.00
198, 30018.01, 19902.91, 18946.54, -3827.22, -14205.00, -691.99, 1954.86, -12558.57, 0.00, 0.00, 0.00
199, 30017.59, 19902.22, 18965.68, -3789.67, -14305.36, -652.49, 1959.51, -12526.01, 0.00, 0.00, 0.00
200, 30026.15, 19907.00, 18988.59, -3775.14, -14275.57, -655.60, 1972.18, -12518.81, 0.00, 0.00, 0.00
201, 30026.55, 19908.92, 18973.12, -3811.91, -14186.36, -698.76, 1963.44, -12560.83, 0.00, 0.00, 0.00
202, 30027.69, 19913.75, 18953.45, -3824.29, -14204.85, -701.20, 1946.37, -12576.07, 0.00, 0.00, 0.00
203, 30026.82, 19912.07, 18959.69, -3795.46, -14295.64, -662.93, 1947.08, -12542.44, 0.00, 0.00, 0.00
204, 30027.38, 19913.35, 18976.16, -3782.05, -14291.64, -660.47, 1958.04, -12531.62, 0.00, 0.00, 0.00
205, 30025.68, 19908.03, 18969.16, -3810.55, -14195.82, -696.79, 1958.28, -12560.58, 0.00, 0.00, 0.00
206, 30021.32, 19903.27, 18951.04, -3831.00, -14185.51, -704.57, 1947.64, -12577.46, 0.06, 0.97, 0.18
207, 30017.74, 19902.64, 18958.06, -3804.40, -14273.67, -669.28, 1949.54, -12551.22, 0.00, 0.00, 0.00
208, 30018.01, 19900.94, 18979.69, -3780.51, -14290.45, -653.30, 1963.96, -12528.82, 0.00, 0.00, 0.00
209, 30018.71, 19898.04, 18976.59, -3804.31, -14196.71, -684.34, 1966.13, -12552.72, 0.00, 0.00, 0.00
210, 30017.16, 19902.62, 18956.02, -3825.93, -14148.92, -701.64, 1955.26, -12575.49, 0.00, 0.00, 0.00
211, 30014.05, 19903.20, 18954.55, -3802.52, -14240.41, -668.25, 1950.64, -12561.17, 0.00, 0.00, 0.00
212, 30012.22, 19899.60, 18973.12, -3773.53, -14304.42, -649.36, 1955.42, -12543.15, 0.00, 0.00, 0.00
213, 30021.99, 19905.52, 18979.80, -3777.71, -14226.17, -672.52, 1961.72, -12545.88, 0.00, 0.00, 0.00
214, 30027.15, 19910.38, 18960.27, -3803.10, -14166.92, -696.91, 1953.43, -12582.85, 0.00, 0.00, 0.00
215, 30023.11, 19910.22, 18952.92, -3792.55, -14237.01, -673.75, 1945.59, -12573.66, 0.00, 0.00, 0.00
216, 30015.42, 19899.47, 18964.20, -3768.86, -14304.07, -650.53, 1949.23, -12533.34, 0.07, 0.97, 0.18
217, 30029.14, 19909.46, 18977.79, -3773.40, -14230.66, -662.64, 1964.74, -12535.71, 0.00, 0.00, 0.00
218, 30026.48, 19904.18, 18956.80, -3812.58, -14157.42, -691.00, 1955.38, -12571.74, 0.00, 0.00, 0.00
219, 30018.41, 19896.94, 18942.83, -3812.36, -14210.25, -672.79, 1945.56, -12568.41, 0.00, 0.00, 0.00
220, 30019.35, 19903.09, 18958.21, -3776.77, -14275.19, -638.57, 1953.90, -12537.07, 0.00, 0.00, 0.00
221, 30029.39, 19907.00, 18971.71, -3771.25, -14227.09, -649.79, 1963.00, -12537.25, 0.00, 0.00, 0.00
222, 30032.36, 19907.31, 18957.74, -3802.64, -14160.03, -682.71, 1954.62, -12571.04, 0.00, 0.00, 0.00
223, 30025.39, 19905.23, 18939.53, -3811.33, -14202.14, -680.63, 1938.01, -12585.17, 0.00, 0.00, 0.00
224, 30020.13, 19902.19, 18951.98, -3778.03, -14289.56, -647.57, 1939.33, -12549.41, 0.00, 0.00, 0.00
225, 30025.90, 19904.52, 18970.73, -3765.93, -14263.47, -649.74, 1952.94, -12540.56, 0.00, 0.00, 0.00
226, 30027.73, 19904.07, 18963.71, -3796.56, -14166.13, -686.35, 1952.80, -12571.22, 0.07, 0.97, 0.17
227, 30016.92, 19898.53, 18942.41, -3814.88, -14175.25, -687.29, 1936.78, -12586.65, 0.00, 0.00, 0.00
228, 30008.54, 19891.80, 18946.43, -3789.29, -14269.53, -648.29, 1934.21, -12557.86, 0.00, 0.00, 0.00
229, 30015.49, 19894.21, 18965.48, -3768.17, -14268.84, -635.62, 1950.77, -12536.85, 0.00, 0.00, 0.00
230, 30016.65, 19892.89, 18953.79, -3800.56, -14178.65, -672.41, 1947.35, -12567.42, 0.00, 0.00, 0.00
231, 30008.18, 19888.54, 18930.36, -3827.31, -14166.78, -685.15, 1929.11, -12591.90, 0.00, 0.00, 0.00
232, 29998.79, 19885.59, 18929.87, -3810.41, -14261.24, -655.71, 1919.34, -12574.80, 0.00, 0.00, 0.00
233, 29999.35, 19886.32, 18950.12, -3786.12, -14287.77, -643.55, 1927.90, -12554.62, 0.00, 0.00, 0.00
234, 30009.54, 19892.09, 18957.32, -3797.72, -14181.20, -674.22, 1938.21, -12574.87, 0.00, 0.00, 0.00
235, 30013.18, 19893.70, 18938.34, -3821.23, -14143.36, -696.03, 1926.30, -12605.74, 0.00, 0.00, 0.00
236, 30002.28, 19886.79, 18933.16, -3803.33, -14243.02, -667.33, 1913.35, -12584.17, 0.07, 0.97, 0.18
237, 29998.30, 19886.41, 18947.82, -3771.83, -14297.00, -645.94, 1918.27, -12560.38, 0.00, 0.00, 0.00
238, 30004.33, 19894.93, 18951.69, -3778.23, -14216.65, -662.26, 1926.74, -12570.38, 0.00, 0.00, 0.00
239, 30002.10, 19890.44, 18924.89, -3813.32, -14157.24, -685.06, 1914.96, -12598.11, 0.00, 0.00, 0.00
240, 29985.94, 19879.55, 18904.68, -3818.08, -14230.82, -670.46, 1900.52, -12598.92, 0.00, 0.00, 0.00
241, 29984.71, 19880.22, 18926.18, -3785.76, -14293.02, -636.44, 1914.02, -12559.87, 0.00, 0.00, 0.00
242, 29997.45, 19888.38, 18945.76, -3785.92, -14223.29, -646.86, 1930.39, -12560.54, 0.00, 0.00, 0.00
243, 29993.07, 19884.16, 18925.04, -3827.60, -14149.28, -679.36, 1919.66, -12596.62, 0.00, 0.00, 0.00
244, 29979.63, 19878.28, 18905.80, -3838.84, -14202.05, -671.69, 1903.72, -12597.49, 0.00, 0.00, 0.00
245, 29980.37, 19874.84, 18922.85, -3808.29, -14280.51, -642.99, 1909.73, -12566.17, 0.00, 0.00, 0.00
246, 29991.68, 19883.15, 18943.62, -3799.13, -14234.10, -650.01, 1922.97, -12559.09, 0.07, 0.97, 0.18
247, 29985.11, 19876.49, 18921.29, -3839.31, -14137.50, -690.47, 1909.78, -12606.38, 0.00, 0.00, 0.00
248, 29975.34, 19870.16, 18899.09, -3848.48, -14172.10, -687.23, 1889.80, -12615.53, 0.00, 0.00, 0.00
249, 29972.50, 19872.94, 18914.22, -3810.73, -14273.13, -645.90, 1893.97, -12575.67, 0.00, 0.00, 0.00
250, 29977.62, 19874.63, 18933.47, -3794.34, -14258.00, -639.89, 1909.24, -12563.60, 0.00, 0.00, 0.00
251, 29976.62, 19873.36, 18921.38, -3826.82, -14164.88, -676.83, 1902.87, -12598.36, 0.00, 0.00, 0.00
252, 29970.40, 19873.58, 18903.16, -3841.93, -14170.98, -683.67, 1886.89, -12613.22, 0.00, 0.00, 0.00
253, 29963.03, 19871.06, 18912.23, -3811.96, -14262.47, -644.09, 1888.81, -12580.03, 0.00, 0.00, 0.00
254, 29965.48, 19872.06, 18933.11, -3788.75, -14271.86, -636.69, 1898.91, -12562.51, 0.00, 0.00, 0.00
255, 29970.02, 19875.30, 18925.49, -3813.70, -14181.00, -673.79, 1894.78, -12595.81, 0.00, 0.00, 0.00
0, 29971.03, 19876.73, 18904.72, -3834.02, -14160.43, -689.26, 1880.09, -12620.67, 0.07, 0.96, 0.18
1, 29969.46, 19876.71, 18908.10, -3801.99, -14244.05, -646.61, 1878.75, -12594.74, 0.00, 0.00, 0.00
2, 29965.51, 19873.56, 18924.95, -3773.51, -14276.86, -626.09, 1891.20, -12576.90, 0.00, 0.00, 0.00
3, 29969.75, 19873.72, 18924.93, -3794.97, -14192.37, -663.42, 1894.13, -12598.34, 0.00, 0.00, 0.00
4, 29974.07, 19875.80, 18905.91, -3821.95, -14129.14, -683.74, 1887.65, -12611.90, 0.00, 0.00, 0.00
5, 29964.10, 19869.38, 18896.81, -3812.92, -14211.84, -656.83, 1879.40, -12604.84, 0.00, 0.00, 0.00
6, 29963.09, 19867.68, 18917.00, -3786.47, -14281.94, -631.46, 1885.62, -12576.66, 0.00, 0.00, 0.00
7, 29969.31, 19870.66, 18923.12, -3798.81, -14211.37, -656.14, 1892.10, -12591.05, 0.00, 0.00, 0.00
8, 29957.42, 19859.90, 18889.57, -3844.97, -14160.30, -696.03, 1868.36, -12636.22, 0.00, 0.00, 0.00
9, 29960.41, 19867.66, 18889.71, -3827.87, -14212.16, -663.76, 1873.66, -12611.28, 0.00, 0.00, 0.00
10, 29958.91, 19867.82, 18905.35, -3794.45, -14281.65, -626.54, 1885.41, -12578.58, 0.07, 0.97, 0.17
11, 29963.09, 19868.76, 18917.02, -3797.61, -14228.70, -641.09, 1890.22, -12584.66, 0.00, 0.00, 0.00
12, 29961.51, 19865.98, 18903.34, -3835.05, -14148.23, -678.49, 1881.30, -12620.33, 0.00, 0.00, 0.00
13, 29950.62, 19860.24, 18890.42, -3842.38, -14192.51, -673.61, 1866.01, -12627.48, 0.00, 0.00, 0.00
14, 29949.17, 19860.87, 18907.76, -3808.45, -14272.33, -637.81, 1874.77, -12592.77, 0.00, 0.00, 0.00
15, 29953.10, 19862.05, 18920.24, -3801.14, -14239.63, -645.70, 1888.05, -12585.57, 0.00, 0.00, 0.00
16, 29958.69, 19867.26, 18906.31, -3827.53, -14135.44, -677.62, 1889.86, -12616.11, 0.00, 0.00, 0.00
17, 29943.11, 19859.93, 18879.02, -3840.16, -14155.76, -677.12, 1872.61, -12633.85, 0.00, 0.00, 0.00
18, 29939.13, 19856.17, 18884.83, -3808.67, -14265.73, -640.29, 1867.29, -12609.71, 0.00, 0.00, 0.00
19, 29946.66, 19858.99, 18905.96, -3786.85, -14261.22, -630.36, 1880.09, -12592.97, 0.07, 0.97, 0.17
20, 29944.12, 19860.49, 18894.44, -3819.11, -14169.87, -668.92, 1875.58, -12624.53, 0.00, 0.00, 0.00
21, 29943.87, 19861.18, 18874.79, -3839.96, -14170.36, -680.70, 1857.18, -12656.43, 0.00, 0.00, 0.00
22, 29942.80, 19858.09, 18883.60, -3811.26, -14259.50, -640.62, 1858.70, -12621.63, 0.00, 0.00, 0.00
23, 29947.34, 19861.92, 18905.96, -3788.20, -14272.62, -631.01, 1871.44, -12598.92, 0.00, 0.00, 0.00
24, 29955.20, 19869.31, 18907.27, -3812.58, -14179.25, -662.95, 1871.53, -12617.54, 0.00, 0.00, 0.00
25, 29957.35, 19872.44, 18890.06, -3838.40, -14150.62, -677.48, 1856.51, -12641.45, 0.00, 0.00, 0.00
26, 29946.80, 19866.83, 18886.17, -3823.78, -14238.40, -651.49, 1847.82, -12632.78, 0.00, 0.00, 0.00
27, 29953.30, 19869.16, 18910.63, -3791.73, -14273.11, -631.77, 1860.09, -12606.00, 0.00, 0.00, 0.00
28, 29957.55, 19868.31, 18912.91, -3812.07, -14185.62, -663.22, 1864.67, -12624.87, 0.00, 0.00, 0.00
29, 29950.08, 19863.86, 18887.76, -3850.33, -14122.99, -694.49, 1849.25, -12660.00, 0.07, 0.96, 0.17
30, 29942.06, 19857.94, 18883.56, -3842.62, -14207.04, -670.31, 1838.86, -12649.46, 0.00, 0.00, 0.00
31, 29940.79, 19855.14, 18905.98, -3812.22, -14282.74, -646.57, 1842.23, -12620.93, 0.00, 0.00, 0.00
32, 29951.07, 19860.78, 18916.64, -3814.93, -14213.07, -664.92, 1854.17, -12627.64, 0.00, 0.00, 0.00
33, 29945.44, 19857.71, 18894.02, -3848.08, -14144.76, -695.88, 1840.49, -12664.48, 0.00, 0.00, 0.00
34, 29936.07, 19852.15, 18880.29, -3843.29, -14209.76, -681.08, 1820.50, -12661.73, 0.00, 0.00, 0.00
35, 29936.63, 19852.44, 18902.29, -3804.67, -14282.70, -642.66, 1828.69, -12621.07, 0.00, 0.00, 0.00
36, 29945.55, 19858.27, 18919.54, -3801.76, -14232.12, -653.94, 1843.28, -12618.16, 0.00, 0.00, 0.00
37, 29944.52, 19855.26, 18901.48, -3842.13, -14151.81, -690.24, 1831.64, -12656.52, 0.00, 0.00, 0.00
38, 29939.51, 19853.00, 18888.43, -3849.66, -14185.20, -680.10, 1816.01, -12661.68, 0.00, 0.00, 0.00
39, 29940.09, 19853.76, 18905.66, -3813.68, -14265.51, -632.91, 1824.77, -12625.43, 0.07, 0.96, 0.18
40, 29943.76, 19855.41, 18922.85, -3806.95, -14239.67, -637.65, 1834.92, -12622.50, 0.00, 0.00, 0.00
41, 29943.09, 19857.20, 18913.40, -3837.39, -14147.58, -671.27, 1830.74, -12658.91, 0.00, 0.00, 0.00
42, 29934.19, 19853.02, 18892.39, -3848.57, -14161.80, -675.67, 1814.92, -12672.57, 0.00, 0.00, 0.00
43, 29936.74, 19858.47, 18901.01, -3810.39, -14236.56, -635.77, 1823.99, -12629.67, 0.00, 0.00, 0.00
44, 29940.99, 19860.29, 18917.15, -3791.28, -14246.15, -634.41, 1834.59, -12623.28, 0.00, 0.00, 0.00
45, 29944.70, 19862.63, 18911.54, -3816.34, -14167.79, -674.40, 1827.08, -12659.18, 0.00, 0.00, 0.00
46, 29945.57, 19866.19, 18893.62, -3830.57, -14156.52, -680.66, 1817.49, -12669.21, 0.00, 0.00, 0.00
47, 29949.10, 19870.68, 18900.61, -3799.39, -14243.11, -638.34, 1822.07, -12633.50, 0.00, 0.00, 0.00
48, 29945.53, 19864.49, 18914.89, -3781.56, -14264.73, -625.20, 1829.65, -12618.16, 0.00, 0.00, 0.00
49, 29943.20, 19861.09, 18907.09, -3807.66, -14175.50, -659.06, 1829.07, -12645.25, 0.07, 0.96, 0.18
50, 29933.72, 19854.92, 18879.04, -3841.66, -14142.28, -681.42, 1811.12, -12681.53, 0.00, 0.00, 0.00
51, 29926.75, 19849.78, 18871.64, -3829.81, -14222.21, -654.10, 1803.99, -12662.53, 0.00, 0.00, 0.00
52, 29928.13, 19850.27, 18890.98, -3803.42, -14262.98, -632.71, 1814.60, -12633.81, 0.00, 0.00, 0.00
53, 29933.48, 19847.83, 18894.82, -3822.46, -14185.44, -661.19, 1819.97, -12656.76, 0.00, 0.00, 0.00
54, 29929.79, 19843.39, 18870.41, -3861.73, -14132.36, -692.93, 1805.86, -12689.73, 0.00, 0.00, 0.00
55, 29924.92, 19841.89, 18864.56, -3848.81, -14200.26, -665.63, 1799.61, -12671.83, 0.00, 0.00, 0.00
56, 29924.78, 19843.90, 18883.60, -3814.57, -14265.49, -634.86, 1807.65, -12639.04, 0.00, 0.00, 0.00
57, 29931.73, 19849.87, 18896.97, -3818.21, -14199.64, -646.93, 1817.60, -12643.26, 0.00, 0.00, 0.00
58, 29930.13, 19850.07, 18878.60, -3851.76, -14122.48, -674.51, 1807.65, -12675.72, 0.00, 0.00, 0.00
59, 29921.54, 19845.13, 18861.97, -3850.69, -14162.13, -659.80, 1795.85, -12676.01, 0.08, 0.96, 0.19
60, 29920.38, 19846.89, 18878.78, -3812.78, -14244.70, -622.97, 1803.67, -12640.65, 0.00, 0.00, 0.00
61, 29929.41, 19856.26, 18898.04, -3804.85, -14215.80, -633.05, 1810.89, -12631.35, 0.00, 0.00, 0.00
62, 29931.42, 19852.10, 18881.81, -3841.91, -14134.57, -672.36, 1797.26, -12673.46, 0.00, 0.00, 0.00
63, 29914.14, 19836.12, 18855.04, -3860.62, -14175.63, -677.08, 1769.88, -12696.77, 0.00, 0.00, 0.00
64, 29913.63, 19837.02, 18874.13, -3821.86, -14258.87, -634.77, 1776.38, -12662.08, 0.00, 0.00, 0.00
65, 29922.70, 19843.74, 18896.01, -3805.59, -14235.87, -634.07, 1788.47, -12651.13, 0.00, 0.00, 0.00
66, 29928.72, 19847.37, 18888.99, -3830.19, -14141.46, -667.18, 1787.78, -12683.61, 0.00, 0.00, 0.00
67, 29922.48, 19845.85, 18869.25, -3842.09, -14151.45, -668.85, 1776.65, -12680.41, 0.00, 0.00, 0.00
68, 29917.88, 19845.89, 18873.37, -3815.02, -14241.99, -631.30, 1777.50, -12654.80, 0.00, 0.00, 0.00
69, 29924.02, 19849.60, 18888.41, -3798.05, -14245.10, -623.97, 1787.98, -12640.94, 0.07, 0.97, 0.19
70, 29928.07, 19851.81, 18876.74, -3826.75, -14151.58, -658.95, 1788.90, -12668.83, 0.00, 0.00, 0.00
71, 29921.21, 19847.88, 18848.55, -3857.46, -14135.06, -675.22, 1771.82, -12688.06, 0.00, 0.00, 0.00
72, 29919.60, 19847.63, 18847.84, -3835.83, -14214.05, -640.53, 1767.60, -12651.47, 0.00, 0.00, 0.00
73, 29918.99, 19846.54, 18861.83, -3814.86, -14235.78, -625.89, 1777.77, -12636.71, 0.00, 0.00, 0.00
74, 29927.17, 19849.89, 18865.41, -3833.12, -14160.97, -656.11, 1781.64, -12659.85, 0.00, 0.00, 0.00
75, 29918.21, 19841.42, 18843.41, -3866.65, -14131.38, -679.85, 1763.80, -12692.75, 0.00, 0.00, 0.00
76, 29907.79, 19836.14, 18838.23, -3849.89, -14210.77, -651.80, 1756.00, -12676.10, 0.00, 0.00, 0.00
77, 29913.47, 19842.11, 18864.78, -3813.05, -14255.47, -623.99, 1771.15, -12644.49, 0.00, 0.00, 0.00
78, 29922.41, 19846.40, 18875.44, -3822.84, -14177.87, -642.43, 1779.94, -12658.84, 0.00, 0.00, 0.00
79, 29916.76, 19844.44, 18851.97, -3861.69, -14120.31, -674.84, 1766.19, -12691.99, 0.08, 0.97, 0.18
80, 29908.58, 19836.30, 18837.36, -3860.73, -14189.40, -659.06, 1751.17, -12691.07, 0.00, 0.00, 0.00
81, 29903.30, 19829.82, 18847.44, -3833.88, -14265.51, -632.89, 1750.77, -12666.71, 0.00, 0.00, 0.00
82, 29911.86, 19835.94, 18861.25, -3833.03, -14205.56, -646.21, 1760.11, -12671.07, 0.00, 0.00, 0.00
83, 29918.32, 19837.82, 18846.83, -3862.25, -14126.48, -674.06, 1751.42, -12701.49, 0.00, 0.00, 0.00
84, 29912.51, 19834.76, 18836.17, -3859.50, -14174.00, -659.91, 1738.36, -12695.05, 0.00, 0.00, 0.00
85, 29909.99, 19833.08, 18851.21, -3821.81, -14256.43, -624.11, 1743.19, -12665.66, 0.00, 0.00, 0.00
86, 29918.01, 19838.60, 18867.87, -3810.82, -14211.44, -631.79, 1752.58, -12663.65, 0.00, 0.00, 0.00
87, 29926.88, 19848.95, 18862.68, -3831.16, -14109.31, -660.02, 1752.24, -12695.92, 0.00, 0.00, 0.00
88, 29924.09, 19854.07, 18853.61, -3833.41, -14147.63, -649.81, 1739.64, -12688.68, 0.00, 0.00, 0.00
89, 29925.39, 19853.62, 18867.89, -3801.74, -14247.02, -613.96, 1739.68, -12657.75, 0.08, 0.96, 0.18
90, 29926.55, 19852.82, 18885.19, -3789.76, -14233.41, -615.81, 1748.11, -12654.51, 0.00, 0.00, 0.00
91, 29927.60, 19852.53, 18874.35, -3821.37, -14137.95, -651.22, 1745.36, -12688.82, 0.00, 0.00, 0.00
92, 29914.81, 19843.21, 18846.23, -3850.62, -14146.17, -666.98, 1723.19, -12716.38, 0.00, 0.00, 0.00
93, 29912.96, 19843.92, 18853.27, -3822.71, -14228.81, -624.98, 1728.66, -12684.39, 0.00, 0.00, 0.00
94, 29915.55, 19842.31, 18866.71, -3807.87, -14241.17, -617.53, 1736.93, -12668.59, 0.00, 0.00, 0.00
95, 29918.61, 19846.74, 18860.22, -3834.08, -14149.28, -650.08, 1738.14, -12690.92, 0.00, 0.00, 0.00
96, 29909.65, 19842.65, 18834.00, -3866.52, -14128.69, -668.09, 1720.32, -12717.20, 0.00, 0.00, 0.00
97, 29901.56, 19837.82, 18825.82, -3850.67, -14221.72, -640.67, 1710.22, -12700.17, 0.00, 0.00, 0.00
98, 29908.18, 19843.41, 18846.72, -3818.93, -14255.41, -619.08, 1723.72, -12673.04, 0.00, 0.00, 0.00
99, 29910.25, 19839.68, 18845.52, -3838.33, -14170.27, -652.22, 1726.54, -12698.94, 0.08, 0.97, 0.18
100, 29904.71, 19833.37, 18819.56, -3872.17, -14126.39, -679.58, 1712.99, -12733.25, 0.00, 0.00, 0.00
101, 29901.78, 19835.45, 18819.25, -3852.86, -14196.69, -651.93, 1710.53, -12703.08, 0.00, 0.00, 0.00
102, 29902.45, 19836.77, 18835.90, -3822.33, -14234.01, -627.01, 1722.49, -12671.92, 0.00, 0.00, 0.00
103, 29915.42, 19840.17, 18843.77, -3829.17, -14169.80, -647.31, 1728.10, -12685.08, 0.00, 0.00, 0.00
104, 29916.78, 19841.42, 18826.92, -3859.95, -14118.50, -671.25, 1716.70, -12713.54, 0.00, 0.00, 0.00
105, 29909.72, 19840.66, 18817.38, -3854.76, -14182.72, -650.08, 1707.25, -12710.25, 0.00, 0.00, 0.00
106, 29909.63, 19842.11, 18837.29, -3818.97, -14251.87, -616.60, 1716.19, -12678.33, 0.00, 0.00, 0.00
107, 29916.11, 19848.04, 18852.33, -3817.92, -14197.42, -632.35, 1725.67, -12682.29, 0.00, 0.00, 0.00
108, 29917.43, 19849.38, 18837.47, -3849.71, -14115.51, -664.96, 1716.26, -12719.73, 0.07, 0.97, 0.18
109, 29909.23, 19847.34, 18824.59, -3848.68, -14154.42, -655.24, 1704.90, -12726.75, 0.00, 0.00, 0.00
110, 29903.93, 19844.97, 18840.69, -3811.46, -14241.01, -619.34, 1711.45, -12682.07, 0.00, 0.00, 0.00
111, 29914.68, 19853.02, 18863.89, -3794.36, -14208.18, -618.50, 1730.94, -12667.45, 0.00, 0.00, 0.00
112, 29920.42, 19851.12, 18849.38, -3825.17, -14116.51, -655.80, 1726.27, -12706.88, 0.00, 0.00, 0.00
113, 29918.35, 19850.31, 18832.48, -3833.88, -14133.32, -653.83, 1712.01, -12724.78, 0.00, 0.00, 0.00
114, 29917.61, 19852.51, 18843.48, -3799.66, -14224.63, -614.49, 1713.46, -12687.90, 0.00, 0.00, 0.00
115, 29931.35, 19861.40, 18868.09, -3775.46, -14202.83, -607.43, 1732.17, -12651.65, 0.00, 0.00, 0.00
116, 29949.75, 19875.04, 18865.56, -3798.46, -14102.05, -641.36, 1738.59, -12679.58, 0.00, 0.00, 0.00
117, 29950.76, 19877.58, 18845.49, -3819.85, -14114.61, -653.14, 1721.64, -12701.18, 0.00, 0.00, 0.00
118, 29954.94, 19881.79, 18849.58, -3793.07, -14211.55, -619.79, 1719.63, -12674.91, 0.07, 0.97, 0.18
119, 29957.04, 19881.25, 18858.93, -3779.93, -14238.93, -615.86, 1720.50, -12662.44, 0.00, 0.00, 0.00
120, 29979.70, 19896.76, 18861.16, -3795.71, -14143.78, -641.58, 1726.87, -12682.42, 0.00, 0.00, 0.00
121, 29984.04, 19897.72, 18840.42, -3817.70, -14112.15, -658.71, 1717.15, -12700.46, 0.00, 0.00, 0.00
122, 29988.69, 19904.29, 18843.59, -3792.98, -14193.22, -627.61, 1718.16, -12673.68, 0.00, 0.00, 0.00
123, 30009.03, 19919.90, 18877.95, -3752.63, -14222.95, -594.82, 1742.85, -12636.74, 0.00, 0.00, 0.00
124, 30018.12, 19923.32, 18880.43, -3770.81, -14141.77, -627.12, 1740.33, -12657.77, 0.00, 0.00, 0.00
125, 30013.72, 19918.89, 18857.34, -3806.10, -14092.33, -656.96, 1724.39, -12684.64, 0.00, 0.00, 0.00
126, 30008.40, 19916.25, 18848.09, -3796.69, -14167.67, -632.98, 1716.66, -12667.85, 0.00, 0.00, 0.00
127, 30013.50, 19920.07, 18868.18, -3762.71, -14227.06, -601.60, 1729.31, -12633.63, 0.00, 0.00, 0.00
128, 30020.43, 19920.59, 18875.42, -3772.10, -14165.06, -623.28, 1734.25, -12645.37, 0.07, 0.97, 0.18
129, 30023.69, 19924.03, 18855.42, -3802.01, -14086.96, -654.28, 1723.77, -12679.29, 0.00, 0.00, 0.00
130, 30022.37, 19924.21, 18844.87, -3796.02, -14136.63, -635.62, 1716.64, -12670.22, 0.00, 0.00, 0.00
131, 30026.51, 19928.05, 18868.27, -3758.07, -14226.24, -602.85, 1723.95, -12633.83, 0.00, 0.00, 0.00
132, 30036.97, 19935.92, 18884.29, -3752.21, -14183.97, -612.57, 1734.58, -12631.78, 0.00, 0.00, 0.00
133, 30036.18, 19935.39, 18864.04, -3792.24, -14101.89, -648.11, 1722.85, -12674.02, 0.00, 0.00, 0.00
134, 30028.25, 19929.06, 18840.13, -3805.21, -14141.90, -646.28, 1705.73, -12678.29, 0.00, 0.00, 0.00
135, 30030.19, 19929.28, 18855.13, -3768.59, -14225.99, -605.82, 1712.55, -12631.08, 0.00, 0.00, 0.00
136, 30041.19, 19937.26, 18875.40, -3754.11, -14195.50, -602.11, 1727.88, -12614.47, 0.00, 0.00, 0.00
137, 30039.58, 19936.28, 18861.12, -3792.35, -14105.43, -637.47, 1720.95, -12649.05, 0.00, 0.00, 0.00
138, 30028.85, 19927.92, 18834.96, -3814.68, -14124.65, -643.46, 1700.72, -12668.45, 0.07, 0.96, 0.18
139, 30025.01, 19924.03, 18838.09, -3787.08, -14216.11, -606.45, 1701.88, -12640.96, 0.00, 0.00, 0.00
140, 30036.18, 19929.60, 18858.57, -3765.96, -14212.20, -595.83, 1718.87, -12624.11, 0.00, 0.00, 0.00
141, 30036.59, 19928.61, 18846.50, -3797.87, -14125.65, -639.26, 1709.91, -12653.57, 0.00, 0.00, 0.00
142, 30027.62, 19920.92, 18822.45, -3820.81, -14115.22, -653.36, 1695.42, -12676.37, 0.00, 0.00, 0.00
143, 30021.50, 19919.79, 18823.41, -3794.03, -14204.69, -617.82, 1694.58, -12652.07, 0.00, 0.00, 0.00
144, 30029.52, 19924.23, 18847.91, -3765.33, -14226.35, -599.79, 1710.11, -12625.09, 0.00, 0.00, 0.00
145, 30037.30, 19927.81, 18850.88, -3784.24, -14123.87, -631.57, 1716.21, -12647.38, 0.00, 0.00, 0.00
146, 30032.07, 19924.48, 18821.93, -3819.67, -14085.73, -657.05, 1701.59, -12678.74, 0.00, 0.00, 0.00
147, 30024.18, 19916.72, 18815.61, -3807.71, -14185.15, -633.20, 1690.69, -12662.80, 0.00, 0.00, 0.00
148, 30022.95, 19912.32, 18832.55, -3780.84, -14239.45, -612.50, 1698.51, -12644.85, 0.08, 0.96, 0.18
149, 30034.80, 19918.33, 18839.44, -3789.38, -14160.23, -632.82, 1702.62, -12652.14, 0.00, 0.00, 0.00
150, 30038.15, 19921.26, 18820.86, -3818.73, -14100.44, -654.66, 1690.66, -12677.57, 0.00, 0.00, 0.00
151, 30032.94, 19922.24, 18817.87, -3801.90, -14164.28, -624.55, 1689.50, -12660.16, 0.00, 0.00, 0.00
152, 30035.40, 19924.14, 18842.65, -3761.35, -14223.87, -590.51, 1706.47, -12631.40, 0.00, 0.00, 0.00
153, 30042.93, 19931.01, 18856.71, -3762.51, -14160.52, -603.32, 1716.77, -12625.18, 0.00, 0.00, 0.00
154, 30041.19, 19928.93, 18835.23, -3798.92, -14090.65, -638.28, 1698.62, -12659.22, 0.00, 0.00, 0.00
155, 30039.00, 19928.26, 18827.32, -3793.43, -14137.50, -622.23, 1689.10, -12658.31, 0.00, 0.00, 0.00
156, 30037.75, 19926.15, 18839.05, -3764.53, -14218.01, -587.65, 1694.11, -12627.66, 0.00, 0.00, 0.00
157, 30039.07, 19923.85, 18846.14, -3768.88, -14181.96, -603.77, 1699.22, -12630.99, 0.00, 0.00, 0.00
158, 30041.57, 19927.96, 18832.66, -3798.70, -14091.03, -634.57, 1697.70, -12663.18, 0.08, 0.96, 0.19
159, 30033.10, 19921.24, 18807.61, -3811.96, -14124.09, -627.79, 1682.15, -12665.03, 0.00, 0.00, 0.00
160, 30025.01, 19912.95, 18811.85, -3785.40, -14215.78, -595.29, 1680.38, -12637.47, 0.00, 0.00, 0.00
161, 30026.24, 19913.91, 18825.29, -3774.61, -14185.06, -595.38, 1690.04, -12630.39, 0.00, 0.00, 0.00
162, 30033.72, 19915.98, 18816.26, -3802.39, -14096.62, -628.93, 1687.18, -12660.14, 0.00, 0.00, 0.00
163, 30024.49, 19906.46, 18790.60, -3828.56, -14125.83, -643.77, 1661.76, -12684.26, 0.00, 0.00, 0.00
164, 30029.63, 19915.98, 18805.62, -3794.34, -14212.31, -601.46, 1668.80, -12647.85, 0.00, 0.00, 0.00
165, 30035.42, 19918.15, 18827.52, -3774.58, -14214.86, -589.17, 1683.65, -12629.74, 0.00, 0.00, 0.00
166, 30036.41, 19916.41, 18820.84, -3806.66, -14124.87, -629.25, 1679.31, -12666.33, 0.00, 0.00, 0.00
167, 30029.99, 19913.26, 18798.55, -3834.64, -14108.38, -645.67, 1662.14, -12689.24, 0.00, 0.00, 0.00
168, 30018.73, 19905.37, 18795.63, -3817.03, -14197.76, -618.27, 1655.01, -12668.79, 0.08, 0.96, 0.19
169, 30021.86, 19907.98, 18821.31, -3784.95, -14221.83, -595.85, 1675.31, -12638.48, 0.00, 0.00, 0.00
170, 30027.33, 19905.93, 18821.33, -3807.44, -14134.13, -626.45, 1678.12, -12662.91, 0.00, 0.00, 0.00
171, 30023.80, 19902.26, 18800.03, -3837.44, -14093.49, -649.23, 1661.32, -12689.93, 0.00, 0.00, 0.00
172, 30020.65, 19901.37, 18800.65, -3818.73, -14168.23, -616.71, 1658.77, -12670.00, 0.00, 0.00, 0.00
173, 30017.30, 19896.20, 18818.18, -3791.97, -14220.31, -594.04, 1664.67, -12642.75, 0.00, 0.00, 0.00
174, 30020.38, 19894.91, 18824.33, -3804.62, -14147.20, -618.81, 1668.85, -12657.14, 0.00, 0.00, 0.00
175, 30017.74, 19894.19, 18803.70, -3838.49, -14072.23, -649.18, 1658.37, -12693.09, 0.00, 0.00, 0.00
176, 30011.75, 19889.27, 18796.63, -3832.39, -14132.96, -626.34, 1654.03, -12690.69, 0.00, 0.00, 0.00
177, 30004.15, 19883.46, 18815.38, -3803.02, -14220.78, -597.06, 1658.75, -12657.50, 0.00, 0.00, 0.00
178, 30005.58, 19885.97, 18830.07, -3802.72, -14167.12, -604.21, 1672.54, -12650.86, 0.08, 0.96, 0.19
179, 30012.78, 19892.47, 18820.08, -3827.45, -14083.59, -626.99, 1669.12, -12677.35, 0.00, 0.00, 0.00
180, 30000.26, 19885.90, 18802.71, -3830.02, -14132.14, -617.91, 1654.68, -12677.33, 0.00, 0.00, 0.00
181, 29996.69, 19882.28, 18817.44, -3793.78, -14214.35, -581.61, 1660.09, -12642.10, 0.00, 0.00, 0.00
182, 30004.00, 19885.01, 18832.55, -3787.10, -14176.75, -588.92, 1669.68, -12643.69, 0.00, 0.00, 0.00
183, 30003.04, 19884.16, 18814.22, -3822.51, -14087.34, -624.64, 1662.41, -12682.85, 0.00, 0.00, 0.00
184, 29992.71, 19879.04, 18790.28, -3838.33, -14112.67, -625.45, 1642.56, -12698.94, 0.00, 0.00, 0.00
185, 29988.24, 19877.76, 18799.02, -3807.89, -14200.87, -587.38, 1646.59, -12668.92, 0.00, 0.00, 0.00
186, 29997.89, 19881.47, 18818.02, -3791.84, -14186.61, -585.64, 1660.91, -12654.89, 0.00, 0.00, 0.00
187, 29997.81, 19880.42, 18803.85, -3826.77, -14097.36, -624.66, 1653.38, -12691.75, 0.07, 0.97, 0.19
188, 29986.59, 19875.57, 18778.95, -3847.76, -14099.79, -634.28, 1635.54, -12714.10, 0.00, 0.00, 0.00
189, 29991.32, 19881.27, 18795.38, -3807.82, -14165.69, -590.31, 1647.73, -12677.95, 0.00, 0.00, 0.00
190, 29991.28, 19878.97, 18810.89, -3785.47, -14181.94, -583.00, 1657.29, -12662.64, 0.00, 0.00, 0.00
191, 29996.13, 19881.16, 18808.19, -3809.34, -14111.91, -620.86, 1650.07, -12693.58, 0.00, 0.00, 0.00
192, 30001.20, 19886.14, 18793.30, -3826.75, -14085.98, -633.22, 1640.86, -12713.16, 0.00, 0.00, 0.00
193, 29996.78, 19885.36, 18791.24, -3805.09, -14169.73, -601.95, 1639.12, -12692.10, 0.00, 0.00, 0.00
194, 29998.52, 19884.42, 18808.57, -3779.03, -14208.47, -583.40, 1647.79, -12668.28, 0.00, 0.00, 0.00
195, 30003.04, 19882.64, 18811.36, -3798.61, -14124.96, -612.35, 1652.67, -12687.97, 0.00, 0.00, 0.00
196, 30001.36, 19881.12, 18792.85, -3831.22, -14076.90, -634.25, 1639.93, -12718.83, 0.00, 0.00, 0.00
197, 29993.60, 19878.30, 18783.47, -3825.01, -14153.77, -611.86, 1630.65, -12704.42, 0.07, 0.97, 0.18
198, 29998.10, 19882.19, 18805.28, -3789.47, -14207.04, -584.52, 1643.95, -12668.34, 0.00, 0.00, 0.00
199, 30005.09, 19883.96, 18815.12, -3797.63, -14136.70, -605.60, 1650.52, -12679.50, 0.00, 0.00, 0.00
200, 30004.04, 19879.89, 18794.04, -3832.41, -14071.88, -637.45, 1635.16, -12716.91, 0.00, 0.00, 0.00
201, 29998.48, 19880.67, 18784.43, -3822.08, -14129.70, -617.49, 1625.71, -12714.61, 0.00, 0.00, 0.00
202, 29994.77, 19880.67, 18798.46, -3786.07, -14207.48, -583.11, 1629.17, -12678.51, 0.00, 0.00, 0.00
203, 30002.72, 19885.88, 18812.32, -3780.75, -14153.10, -592.39, 1640.84, -12664.59, 0.00, 0.00, 0.00
204, 29999.68, 19883.13, 18788.74, -3818.95, -14058.33, -628.96, 1632.62, -12702.79, 0.00, 0.00, 0.00
205, 29991.35, 19877.72, 18771.15, -3829.46, -14107.68, -622.70, 1618.36, -12711.26, 0.00, 0.00, 0.00
206, 29989.42, 19871.35, 18783.53, -3800.15, -14207.68, -589.10, 1621.46, -12684.50, 0.00, 0.00, 0.00
207, 29996.33, 19875.60, 18798.64, -3791.55, -14180.66, -591.14, 1633.11, -12685.44, 0.08, 0.96, 0.18
208, 30000.60, 19878.05, 18787.27, -3823.09, -14088.86, -620.42, 1629.64, -12702.94, 0.00, 0.00, 0.00
209, 29988.17, 19870.68, 18759.75, -3845.33, -14107.97, -627.01, 1608.32, -12715.39, 0.00, 0.00, 0.00
210, 29988.91, 19873.25, 18769.41, -3811.51, -14196.04, -589.75, 1611.76, -12686.27, 0.00, 0.00, 0.00
211, 29996.73, 19876.98, 18789.70, -3790.57, -14188.93, -581.37, 1627.41, -12668.95, 0.00, 0.00, 0.00
212, 29998.99, 19877.27, 18778.46, -3821.21, -14097.02, -616.37, 1626.16, -12699.41, 0.00, 0.00, 0.00
213, 29991.41, 19864.08, 18747.64, -3854.83, -14098.94, -640.65, 1599.69, -12732.69, 0.00, 0.00, 0.00
214, 29986.61, 19858.47, 18743.30, -3839.85, -14197.11, -618.29, 1587.55, -12719.97, 0.00, 0.00, 0.00
215, 29997.85, 19879.89, 18776.72, -3798.50, -14199.03, -587.96, 1614.04, -12685.26, 0.00, 0.00, 0.00
216, 29991.55, 19879.39, 18781.07, -3814.12, -14101.63, -611.14, 1622.56, -12700.42, 0.00, 0.00, 0.00
217, 29979.68, 19871.59, 18761.27, -3840.92, -14070.91, -631.37, 1606.84, -12725.29, 0.08, 0.97, 0.18
218, 29969.98, 19867.79, 18758.72, -3819.64, -14153.12, -597.42, 1606.15, -12700.26, 0.00, 0.00, 0.00
219, 29968.26, 19859.93, 18775.87, -3792.64, -14198.97, -575.76, 1615.27, -12675.14, 0.00, 0.00, 0.00
220, 29970.60, 19863.06, 18778.50, -3807.89, -14120.98, -605.78, 1616.23, -12695.77, 0.00, 0.00, 0.00
221, 29968.53, 19863.84, 18757.09, -3840.66, -14065.08, -633.72, 1601.79, -12729.05, 0.00, 0.00, 0.00
222, 29963.72, 19859.17, 18745.76, -3834.15, -14123.66, -613.64, 1591.13, -12721.32, 0.00, 0.00, 0.00
223, 29965.96, 19859.84, 18769.85, -3798.50, -14193.07, -581.68, 1602.08, -12691.97, 0.00, 0.00, 0.00
224, 29970.76, 19861.49, 18783.60, -3803.17, -14142.60, -600.41, 1610.76, -12696.01, 0.00, 0.00, 0.00
225, 29967.99, 19859.26, 18766.84, -3838.51, -14071.29, -631.93, 1601.32, -12724.27, 0.00, 0.00, 0.00
226, 29958.71, 19855.19, 18753.43, -3839.00, -14124.09, -613.24, 1592.23, -12720.69, 0.00, 0.00, 0.00
227, 29956.43, 19854.65, 18771.46, -3804.18, -14198.14, -578.55, 1600.79, -12688.24, 0.08, 0.96, 0.18
228, 29961.08, 19858.70, 18783.36, -3799.95, -14152.99, -590.04, 1611.00, -12689.93, 0.00, 0.00, 0.00
229, 29960.25, 19857.27, 18762.03, -3835.94, -14072.39, -627.99, 1600.12, -12727.11, 0.00, 0.00, 0.00
230, 29953.73, 19856.10, 18742.79, -3842.96, -14107.46, -621.47, 1584.87, -12736.00, 0.00, 0.00, 0.00
231, 29947.78, 19850.92, 18748.53, -3815.15, -14198.59, -588.79, 1584.20, -12708.62, 0.00, 0.00, 0.00
232, 29952.14, 19849.78, 18765.25, -3803.57, -14173.73, -587.11, 1598.24, -12694.90, 0.00, 0.00, 0.00
233, 29950.35, 19849.44, 18753.02, -3837.48, -14077.11, -619.84, 1596.50, -12731.04, 0.00, 0.00, 0.00
234, 29938.89, 19837.73, 18728.48, -3860.39, -14088.33, -628.06, 1581.65, -12751.16, 0.00, 0.00, 0.00
235, 29926.28, 19830.91, 18730.72, -3834.75, -14185.96, -595.45, 1578.39, -12711.91, 0.00, 0.00, 0.00
236, 29933.32, 19837.73, 18748.44, -3812.25, -14179.19, -587.05, 1588.99, -12698.92, 0.00, 0.00, 0.00
237, 29947.45, 19845.64, 18743.19, -3834.93, -14070.94, -621.65, 1591.13, -12719.51, 0.08, 0.97, 0.18
238, 29945.55, 19849.31, 18724.59, -3857.87, -14069.60, -635.37, 1572.71, -12747.33, 0.00, 0.00, 0.00
239, 29937.90, 19846.09, 18722.83, -3839.54, -14173.71, -605.04, 1565.52, -12731.58, 0.00, 0.00, 0.00
240, 29943.02, 19848.59, 18747.14, -3809.70, -14201.67, -588.90, 1578.23, -12705.98, 0.00, 0.00, 0.00
241, 29956.99, 19859.77, 18758.77, -3820.32, -14109.36, -613.31, 1587.26, -12720.22, 0.00, 0.00, 0.00
242, 29949.39, 19857.47, 18741.89, -3848.39, -14069.28, -634.52, 1573.70, -12750.42, 0.00, 0.00, 0.00
243, 29937.84, 19851.66, 18737.60, -3832.25, -14153.33, -605.67, 1566.63, -12736.67, 0.00, 0.00, 0.00
244, 29937.48, 19848.33, 18759.04, -3797.81, -14200.96, -581.75, 1577.65, -12715.39, 0.00, 0.00, 0.00
245, 29941.37, 19849.89, 18766.39, -3802.61, -14121.61, -602.29, 1588.05, -12720.62, 0.00, 0.00, 0.00
246, 29936.52, 19846.09, 18742.96, -3832.07, -14060.21, -625.04, 1579.15, -12737.41, 0.00, 0.00, 0.00
247, 29932.74, 19844.12, 18733.33, -3817.54, -14121.63, -600.37, 1574.19, -12730.01, 0.08, 0.97, 0.18
248, 29928.34, 19841.38, 18747.30, -3788.42, -14189.92, -575.00, 1582.03, -12702.90, 0.00, 0.00, 0.00
249, 29938.10, 19846.20, 18760.60, -3795.21, -14131.26, -591.34, 1590.35, -12709.92, 0.00, 0.00, 0.00
250, 29940.41, 19850.05, 18746.41, -3835.92, -14049.19, -620.98, 1579.55, -12747.36, 0.00, 0.00, 0.00
251, 29923.58, 19838.25, 18725.75, -3853.46, -14093.38, -619.46, 1558.65, -12755.83, 0.00, 0.00, 0.00
252, 29924.31, 19838.94, 18746.34, -3819.98, -14182.94, -586.71, 1566.41, -12722.70, 0.00, 0.00, 0.00
253, 29931.24, 19841.08, 18762.23, -3814.59, -14156.28, -593.86, 1575.28, -12715.44, 0.00, 0.00, 0.00
254, 29932.09, 19842.34, 18744.02, -3847.54, -14069.33, -628.82, 1566.99, -12746.73, 0.00, 0.00, 0.00
255, 29923.20, 19839.21, 18719.92, -3859.70, -14098.88, -627.95, 1549.51, -12761.42, 0.00, 0.00, 0.00
0, 29914.81, 19832.81, 18719.54, -3833.91, -14191.21, -597.15, 1549.53, -12739.06, 0.00, 0.00, 0.00
1, 29918.35, 19835.36, 18728.88, -3822.30, -14177.49, -598.07, 1562.59, -12725.92, 0.08, 0.98, 0.18
2, 29920.78, 19838.13, 18715.29, -3854.31, -14086.34, -633.60, 1556.42, -12754.91, 0.00, 0.00, 0.00
3, 29907.26, 19825.48, 18687.24, -3878.70, -14093.87, -644.89, 1535.70, -12785.93, 0.00, 0.00, 0.00
4, 29910.81, 19829.10, 18701.88, -3844.25, -14174.96, -600.99, 1543.75, -12746.42, 0.00, 0.00, 0.00
5, 29917.12, 19830.73, 18722.56, -3826.04, -14183.77, -594.44, 1549.67, -12731.80, 0.00, 0.00, 0.00
6, 29920.56, 19830.09, 18716.72, -3853.35, -14092.39, -627.46, 1547.10, -12761.59, 0.00, 0.00, 0.00
7, 29915.28, 19830.87, 18695.42, -3875.61, -14075.09, -640.36, 1531.63, -12776.06, 0.00, 0.00, 0.00
8, 29905.61, 19829.53, 18697.30, -3852.26, -14165.22, -610.58, 1524.08, -12761.13, 0.00, 0.00, 0.00
9, 29904.04, 19827.00, 18716.88, -3825.70, -14197.34, -593.98, 1532.28, -12746.91, 0.00, 0.00, 0.00
10, 29913.25, 19829.46, 18721.89, -3839.54, -14093.13, -619.90, 1538.72, -12762.55, 0.00, 0.00, 0.00
11, 29907.42, 19822.93, 18699.25, -3873.38, -14054.80, -643.60, 1522.89, -12783.57, 0.07, 0.97, 0.18
12, 29891.01, 19811.89, 18686.91, -3866.43, -14153.71, -624.71, 1504.12, -12780.32, 0.00, 0.00, 0.00
13, 29896.37, 19814.62, 18709.59, -3830.40, -14209.21, -595.03, 1514.31, -12749.34, 0.00, 0.00, 0.00
14, 29898.50, 19818.06, 18716.68, -3835.98, -14134.73, -615.19, 1521.19, -12761.64, 0.00, 0.00, 0.00
15, 29895.81, 19815.85, 18694.71, -3865.11, -14071.00, -640.80, 1508.72, -12796.17, 0.00, 0.00, 0.00
16, 29895.41, 19815.29, 18687.69, -3850.42, -14132.14, -618.65, 1500.29, -12785.82, 0.00, 0.00, 0.00
17, 29897.42, 19817.99, 18708.16, -3811.35, -14198.25, -581.88, 1514.58, -12745.12, 0.00, 0.00, 0.00
18, 29902.07, 19821.37, 18717.89, -3814.28, -14145.93, -598.69, 1522.06, -12755.33, 0.00, 0.00, 0.00
19, 29905.49, 19824.83, 18704.12, -3845.44, -14064.21, -631.19, 1512.39, -12792.60, 0.00, 0.00, 0.00
20, 29895.41, 19821.30, 18688.92, -3853.15, -14106.07, -621.22, 1499.69, -12789.60, 0.07, 0.97, 0.18
21, 29892.75, 19821.01, 18702.46, -3824.16, -14190.32, -586.80, 1504.90, -12753.73, 0.00, 0.00, 0.00
22, 29898.92, 19822.60, 18720.32, -3818.86, -14154.82, -591.85, 1518.98, -12750.69, 0.00, 0.00, 0.00
23, 29905.00, 19825.57, 18708.77, -3851.00, -14063.31, -625.78, 1511.74, -12783.90, 0.00, 0.00, 0.00
24, 29901.29, 19826.96, 18684.31, -3863.32, -14071.12, -625.18, 1493.70, -12798.54, 0.00, 0.00, 0.00
25, 29888.77, 19818.71, 18686.26, -3837.26, -14166.92, -593.37, 1491.44, -12774.42, 0.00, 0.00, 0.00
26, 29879.88, 19807.65, 18695.09, -3835.09, -14183.83, -604.73, 1489.03, -12776.95, 0.00, 0.00, 0.00
27, 29899.26, 19829.42, 18697.99, -3852.95, -14082.13, -632.78, 1495.06, -12796.08, 0.00, 0.00, 0.00
28, 29897.65, 19833.22, 18672.45, -3876.46, -14076.23, -641.16, 1479.91, -12812.80, 0.00, 0.00, 0.00
29, 29886.25, 19827.14, 18672.51, -3856.53, -14168.12, -608.68, 1476.47, -12782.56, 0.00, 0.00, 0.00
30, 29887.41, 19821.71, 18699.69, -3830.66, -14176.64, -597.91, 1493.16, -12762.82, 0.07, 0.97, 0.18
31, 29889.04, 19815.65, 18703.18, -3855.99, -14083.01, -631.88, 1496.02, -12781.20, 0.00, 0.00, 0.00
32, 29891.28, 19812.90, 18681.28, -3885.90, -14059.60, -652.98, 1476.02, -12811.77, 0.00, 0.00, 0.00
33, 29888.77, 19814.33, 18678.64, -3864.84, -14147.29, -621.69, 1470.70, -12790.14, 0.00, 0.00, 0.00
34, 29891.19, 19819.65, 18703.22, -3827.49, -14183.92, -599.72, 1484.00, -12763.87, 0.00, 0.00, 0.00
35, 29899.46, 19826.55, 18712.52, -3833.68, -14096.71, -623.19, 1491.80, -12777.80, 0.00, 0.00, 0.00
36, 29894.03, 19823.38, 18690.97, -3860.64, -14046.55, -646.39, 1481.12, -12806.14, 0.00, 0.00, 0.00
37, 29885.87, 19820.03, 18685.61, -3844.10, -14121.00, -621.91, 1474.08, -12793.07, 0.00, 0.00, 0.00
38, 29883.43, 19816.56, 18705.79, -3809.01, -14179.66, -593.57, 1484.40, -12759.29, 0.00, 0.00, 0.00
39, 29886.09, 19816.86, 18714.62, -3815.00, -14103.12, -610.63, 1492.45, -12770.69, 0.00, 0.00, 0.00
40, 29885.15, 19817.35, 18691.62, -3849.28, -14022.23, -636.78, 1479.75, -12808.24, 0.08, 0.97, 0.18
41, 29885.91, 19820.45, 18682.91, -3844.08, -14090.29, -613.80, 1470.48, -12803.15, 0.00, 0.00, 0.00
42, 29884.86, 19820.56, 18701.90, -3810.08, -14174.29, -575.42, 1479.37, -12760.19, 0.00, 0.00, 0.00
43, 29892.39, 19826.53, 18716.70, -3808.45, -14124.16, -584.79, 1491.46, -12757.53, 0.00, 0.00, 0.00
44, 29896.31, 19828.86, 18697.21, -3847.54, -14042.86, -620.04, 1482.59, -12791.59, 0.00, 0.00, 0.00
45, 29893.89, 19826.91, 18674.59, -3855.72, -14082.07, -612.75, 1468.53, -12796.89, 0.00, 0.00, 0.00
46, 29887.92, 19821.84, 18675.98, -3827.98, -14174.49, -579.42, 1474.34, -12770.31, 0.00, 0.00, 0.00
47, 29891.19, 19824.14, 18686.86, -3820.74, -14151.11, -585.44, 1489.32, -12765.89, 0.00, 0.00, 0.00
48, 29891.12, 19822.06, 18672.67, -3856.06, -14060.32, -620.95, 1480.15, -12800.58, 0.00, 0.00, 0.00
49, 29879.72, 19810.17, 18650.25, -3877.29, -14080.01, -627.57, 1459.59, -12818.37, 0.00, 0.00, 0.00
50, 29883.12, 19813.39, 18663.13, -3844.59, -14163.79, -584.63, 1465.43, -12784.57, 0.08, 0.97, 0.19
51, 29890.09, 19815.63, 18682.30, -3829.10, -14160.66, -581.64, 1475.64, -12762.42, 0.00, 0.00, 0.00
52, 29889.29, 19812.85, 18671.48, -3861.53, -14068.84, -621.96, 1469.09, -12800.33, 0.00, 0.00, 0.00
53, 29882.96, 19808.61, 18648.13, -3886.88, -14056.03, -635.95, 1453.78, -12825.65, 0.00, 0.00, 0.00
54, 29875.38, 19805.63, 18648.04, -3866.34, -14136.61, -603.09, 1448.73, -12795.84, 0.00, 0.00, 0.00
55, 29877.11, 19805.12, 18668.49, -3840.92, -14149.86, -587.76, 1464.46, -12774.63, 0.00, 0.00, 0.00
56, 29877.33, 19805.19, 18668.22, -3864.91, -14075.76, -617.00, 1463.68, -12805.40, 0.00, 0.00, 0.00
57, 29876.48, 19805.46, 18649.98, -3889.29, -14050.13, -636.24, 1447.52, -12822.23, 0.00, 0.00, 0.00
58, 29869.37, 19800.87, 18647.05, -3869.76, -14133.19, -610.67, 1440.17, -12805.90, 0.00, 0.00, 0.00
59, 29872.17, 19802.13, 18669.88, -3833.97, -14175.27, -587.49, 1450.23, -12779.07, 0.00, 0.00, 0.00
60, 29881.00, 19806.19, 18675.46, -3844.70, -14096.13, -616.44, 1452.60, -12804.46, 0.08, 0.97, 0.18
61, 29878.76, 19805.92, 18655.46, -3877.45, -14042.13, -646.17, 1436.61, -12841.81, 0.00, 0.00, 0.00
62, 29872.41, 19802.71, 18647.79, -3869.51, -14113.49, -624.26, 1425.44, -12823.73, 0.00, 0.00, 0.00
63, 29871.59, 19799.02, 18663.91, -3843.09, -14180.21, -596.97, 1428.52, -12796.75, 0.00, 0.00, 0.00
64, 29877.46, 19803.71, 18677.72, -3846.18, -14113.20, -613.96, 1437.40, -12803.12, 0.00, 0.00, 0.00
65, 29876.53, 19807.60, 18662.01, -3880.84, -14036.05, -646.39, 1430.47, -12835.67, 0.00, 0.00, 0.00
66, 29870.24, 19802.10, 18643.88, -3887.66, -14091.12, -637.05, 1418.20, -12836.41, 0.00, 0.00, 0.00
67, 29862.80, 19791.84, 18648.30, -3865.20, -14164.93, -610.67, 1418.24, -12811.15, 0.00, 0.00, 0.00
68, 29870.02, 19800.20, 18662.34, -3859.63, -14115.28, -617.58, 1432.57, -12808.02, 0.00, 0.00, 0.00
69, 29876.66, 19805.90, 18649.91, -3888.02, -14043.58, -649.18, 1427.00, -12845.12, 0.00, 0.00, 0.00
70, 29870.18, 19801.97, 18631.36, -3893.61, -14079.83, -639.57, 1416.36, -12849.82, 0.08, 0.96, 0.18
71, 29862.44, 19797.86, 18637.40, -3861.96, -14168.57, -603.88, 1420.99, -12815.51, 0.00, 0.00, 0.00
72, 29869.15, 19799.24, 18656.84, -3847.20, -14147.51, -600.64, 1437.49, -12796.51, 0.00, 0.00, 0.00
73, 29868.84, 19798.35, 18645.78, -3880.89, -14054.60, -631.82, 1438.45, -12827.49, 0.00, 0.00, 0.00
74, 29859.00, 19793.88, 18622.69, -3903.78, -14066.09, -640.31, 1420.43, -12844.12, 0.00, 0.00, 0.00
75, 29859.96, 19796.11, 18635.90, -3871.41, -14152.57, -603.30, 1425.93, -12810.43, 0.00, 0.00, 0.00
76, 29859.74, 19790.21, 18652.04, -3853.57, -14160.70, -598.16, 1435.43, -12800.89, 0.00, 0.00, 0.00
77, 29866.38, 19792.00, 18643.34, -3879.93, -14070.67, -637.63, 1431.58, -12834.84, 0.00, 0.00, 0.00
78, 29864.48, 19793.16, 18623.58, -3897.85, -14050.35, -648.42, 1420.21, -12858.33, 0.00, 0.00, 0.00
79, 29858.46, 19789.76, 18623.83, -3871.19, -14137.21, -612.91, 1419.27, -12834.73, 0.00, 0.00, 0.00
80, 29864.10, 19796.02, 18645.15, -3838.13, -14149.12, -593.42, 1435.81, -12807.33, 0.08, 0.97, 0.18
81, 29873.08, 19806.55, 18649.20, -3851.18, -14063.00, -622.94, 1443.16, -12835.82, 0.00, 0.00, 0.00
82, 29869.82, 19805.72, 18628.88, -3879.84, -14038.97, -646.35, 1425.53, -12862.51, 0.00, 0.00, 0.00
83, 29852.50, 19794.10, 18612.72, -3874.56, -14130.26, -625.87, 1408.83, -12844.81, 0.00, 0.00, 0.00
84, 29870.02, 19807.53, 18644.55, -3832.03, -14169.84, -587.87, 1429.24, -12804.22, 0.00, 0.00, 0.00
85, 29874.65, 19809.54, 18646.21, -3848.68, -14098.97, -611.34, 1431.09, -12825.05, 0.00, 0.00, 0.00
86, 29871.56, 19805.86, 18623.05, -3885.16, -14040.67, -638.21, 1412.76, -12861.64, 0.00, 0.00, 0.00
87, 29864.52, 19801.86, 18611.27, -3879.30, -14107.93, -619.81, 1402.66, -12855.58, 0.00, 0.00, 0.00
88, 29864.97, 19799.62, 18625.51, -3847.52, -14181.00, -590.71, 1410.26, -12824.89, 0.00, 0.00, 0.00
89, 29875.83, 19805.16, 18640.24, -3846.85, -14120.02, -602.98, 1422.64, -12825.59, 0.00, 0.00, 0.00
90, 29873.60, 19802.37, 18622.38, -3885.60, -14038.37, -636.89, 1414.04, -12859.18, 0.08, 0.97, 0.19
91, 29863.58, 19798.04, 18604.79, -3890.16, -14086.69, -631.24, 1399.29, -12865.33, 0.00, 0.00, 0.00
92, 29859.00, 19793.25, 18615.87, -3859.48, -14172.57, -598.89, 1401.54, -12826.30, 0.00, 0.00, 0.00
93, 29866.38, 19799.24, 18633.89, -3850.58, -14123.64, -604.41, 1416.01, -12818.19, 0.00, 0.00, 0.00
94, 29875.54, 19807.40, 18628.23, -3875.08, -14028.47, -632.20, 1415.63, -12850.93, 0.00, 0.00, 0.00
95, 29870.40, 19807.40, 18613.66, -3882.99, -14069.17, -630.01, 1399.35, -12865.60, 0.00, 0.00, 0.00
96, 29864.79, 19800.47, 18623.61, -3852.81, -14167.25, -596.84, 1402.97, -12833.23, 0.00, 0.00, 0.00
97, 29873.53, 19801.21, 18646.12, -3834.49, -14151.56, -592.16, 1417.73, -12819.62, 0.00, 0.00, 0.00
98, 29878.29, 19803.76, 18637.20, -3863.05, -14054.31, -630.45, 1416.05, -12848.81, 0.00, 0.00, 0.00
99, 29877.60, 19810.19, 18620.63, -3874.56, -14049.50, -635.80, 1405.61, -12859.81, 0.00, 0.00, 0.00
100, 29877.44, 19812.56, 18624.32, -3846.51, -14141.43, -602.07, 1407.40, -12831.22, 0.08, 0.97, 0.17
101, 29888.95, 19814.33, 18643.01, -3823.44, -14154.44, -594.98, 1420.68, -12814.19, 0.00, 0.00, 0.00
102, 29900.73, 19822.87, 18641.85, -3841.88, -14062.98, -625.94, 1424.45, -12846.87, 0.00, 0.00, 0.00
103, 29905.63, 19832.05, 18621.64, -3862.45, -14038.64, -639.01, 1413.93, -12865.04, 0.00, 0.00, 0.00
104, 29911.68, 19839.50, 18624.72, -3836.43, -14123.55, -604.73, 1415.13, -12821.05, 0.00, 0.00, 0.00
105, 29916.33, 19838.20, 18642.90, -3811.17, -14163.14, -589.17, 1422.35, -12797.80, 0.00, 0.00, 0.00
106, 29930.01, 19846.87, 18648.10, -3826.04, -14077.51, -614.49, 1425.84, -12818.59, 0.00, 0.00, 0.00
107, 29934.24, 19852.46, 18629.82, -3851.29, -14027.57, -632.80, 1415.76, -12843.16, 0.00, 0.00, 0.00
108, 29933.25, 19854.21, 18624.86, -3834.22, -14103.08, -606.38, 1411.94, -12820.38, 0.00, 0.00, 0.00
109, 29934.37, 19850.07, 18639.63, -3806.88, -14165.13, -586.87, 1418.49, -12793.83, 0.08, 0.96, 0.17
110, 29949.21, 19856.24, 18647.37, -3814.71, -14092.86, -608.68, 1425.24, -12804.40, 0.00, 0.00, 0.00
111, 29953.53, 19859.37, 18620.88, -3851.56, -14013.92, -641.63, 1413.90, -12842.62, 0.00, 0.00, 0.00
112, 29950.42, 19858.21, 18608.86, -3845.60, -14075.63, -623.90, 1406.66, -12834.55, 0.00, 0.00, 0.00
113, 29953.64, 19859.37, 18631.16, -3807.53, -14161.48, -589.12, 1419.65, -12787.32, 0.00, 0.00, 0.00
114, 29965.93, 19863.79, 18644.86, -3808.58, -14112.04, -603.77, 1431.88, -12785.51, 0.00, 0.00, 0.00
115, 29969.80, 19865.38, 18628.08, -3845.44, -14025.65, -640.09, 1425.48, -12819.13, 0.00, 0.00, 0.00
116, 29963.67, 19863.35, 18610.08, -3850.74, -14067.49, -633.43, 1414.93, -12821.27, 0.00, 0.00, 0.00
117, 29963.61, 19863.32, 18621.42, -3820.34, -14152.95, -598.07, 1419.09, -12789.78, 0.00, 0.00, 0.00
118, 29972.71, 19870.12, 18636.53, -3810.84, -14122.19, -601.73, 1429.01, -12784.06, 0.00, 0.00, 0.00
119, 29974.47, 19870.61, 18620.66, -3845.15, -14032.87, -640.00, 1421.64, -12819.71, 0.08, 0.97, 0.18
120, 29970.13, 19869.40, 18600.76, -3859.12, -14050.66, -642.14, 1407.89, -12834.28, 0.00, 0.00, 0.00
121, 29961.37, 19864.55, 18604.25, -3831.80, -14144.50, -603.30, 1407.85, -12797.09, 0.00, 0.00, 0.00
122, 29959.52, 19859.48, 18614.55, -3819.71, -14144.12, -599.29, 1416.65, -12777.13, 0.00, 0.00, 0.00
123, 29977.46, 19872.58, 18618.24, -3838.31, -14040.05, -623.48, 1425.08, -12796.66, 0.00, 0.00, 0.00
124, 29965.73, 19863.30, 18592.09, -3868.06, -14037.16, -638.30, 1404.99, -12825.43, 0.00, 0.00, 0.00
125, 29956.70, 19855.59, 18592.92, -3847.52, -14130.93, -607.52, 1401.66, -12798.59, 0.00, 0.00, 0.00
126, 29970.16, 19866.05, 18619.05, -3818.12, -14145.03, -591.76, 1419.02, -12770.04, 0.00, 0.00, 0.00
127, 29972.64, 19866.72, 18615.25, -3842.85, -14053.32, -624.75, 1419.85, -12794.27, 0.00, 0.00, 0.00
128, 29969.29, 19867.44, 18592.96, -3867.23, -14024.13, -642.79, 1404.54, -12824.45, 0.00, 0.00, 0.00
129, 29965.89, 19866.16, 18585.43, -3848.64, -14107.33, -614.47, 1395.60, -12815.13, 0.08, 0.97, 0.18
130, 29968.79, 19867.26, 18604.00, -3815.17, -14135.62, -588.10, 1407.38, -12779.90, 0.00, 0.00, 0.00
132, 29972.10, 19871.84, 18593.50, -3856.17, -14022.30, -635.53, 1401.19, -12822.66, 0.00, 0.00, 0.00
133, 29967.77, 19867.55, 18582.81, -3849.33, -14096.95, -614.09, 1391.22, -12811.71, 0.00, 0.00, 0.00
134, 29966.89, 19863.73, 18597.86, -3822.30, -14157.82, -588.77, 1402.53, -12783.50, 0.00, 0.00, 0.00
135, 29975.77, 19870.16, 18609.03, -3827.60, -14087.01, -603.99, 1416.34, -12786.81, 0.00, 0.00, 0.00
136, 29979.43, 19872.02, 18590.71, -3861.02, -14012.38, -628.62, 1408.81, -12819.08, 0.00, 0.00, 0.00
137, 29961.13, 19858.27, 18568.33, -3873.71, -14071.79, -618.07, 1391.69, -12826.46, 0.00, 0.00, 0.00
138, 29948.61, 19845.04, 18579.35, -3846.78, -14153.82, -589.01, 1393.83, -12788.68, 0.00, 0.00, 0.00
139, 29957.73, 19850.14, 18596.61, -3838.87, -14104.73, -596.84, 1407.58, -12784.84, 0.09, 0.97, 0.19
140, 29961.84, 19850.34, 18582.28, -3869.78, -14016.78, -627.12, 1402.73, -12817.99, 0.00, 0.00, 0.00
141, 29951.47, 19842.36, 18561.20, -3881.56, -14053.52, -626.54, 1386.19, -12829.23, 0.00, 0.00, 0.00
142, 29949.55, 19840.21, 18570.63, -3850.56, -14141.14, -593.93, 1387.17, -12799.95, 0.00, 0.00, 0.00
143, 29953.88, 19837.35, 18585.86, -3840.97, -14116.85, -599.23, 1399.64, -12790.18, 0.00, 0.00, 0.00
144, 29959.94, 19843.10, 18580.47, -3869.27, -14018.66, -632.55, 1399.76, -12819.15, 0.00, 0.00, 0.00
145, 29952.81, 19839.14, 18560.71, -3886.48, -14017.87, -633.90, 1381.49, -12836.09, 0.00, 0.00, 0.00
146, 29951.40, 19837.04, 18572.60, -3852.59, -14107.55, -596.50, 1382.46, -12807.01, 0.00, 0.00, 0.00
147, 29954.04, 19836.03, 18595.89, -3831.67, -14123.75, -591.85, 1390.17, -12796.57, 0.00, 0.00, 0.00
148, 29957.17, 19839.74, 18591.82, -3854.16, -14034.19, -624.08, 1388.51, -12821.92, 0.00, 0.00, 0.00
149, 29953.71, 19836.28, 18568.24, -3876.87, -14021.41, -635.75, 1372.17, -12850.26, 0.08, 0.96, 0.19
150, 29942.51, 19825.26, 18562.38, -3861.53, -14114.48, -605.13, 1365.83, -12834.28, 0.00, 0.00, 0.00
152, 29953.66, 19825.17, 18583.15, -3851.63, -14045.37, -624.75, 1380.38, -12831.96, 0.00, 0.00, 0.00
153, 29953.59, 19826.98, 18563.06, -3878.85, -14009.22, -643.80, 1364.31, -12856.57, 0.00, 0.00, 0.00
154, 29943.76, 19822.29, 18559.50, -3863.21, -14092.26, -615.77, 1356.73, -12846.26, 0.00, 0.00, 0.00
155, 29943.36, 19820.28, 18580.09, -3835.05, -14139.89, -590.80, 1367.43, -12816.83, 0.00, 0.00, 0.00
156, 29944.27, 19821.26, 18582.68, -3849.13, -14049.01, -613.31, 1375.03, -12831.15, 0.00, 0.00, 0.00
157, 29936.83, 19819.25, 18560.53, -3885.20, -13999.84, -642.68, 1361.89, -12857.82, 0.00, 0.00, 0.00
158, 29922.86, 19807.45, 18545.89, -3885.45, -14092.15, -627.46, 1343.76, -12856.30, 0.00, 0.00, 0.00
