%OpenBCI Raw EEG Data
%
%Sample Rate = 250.0 Hz
%First Column = SampleIndex
%Other Columns = EEG data in microvolts followed by Accel Data (in G) interleaved with Aux Data
0, 25017.52, 18432.46, 5976.10, -6186.00, -2212.64, 5749.40, 9107.58, -10512.00, 0.04, 0.94, 0.21
1, 25009.32, 18418.31, 5964.00, -6184.41, -2395.35, 5764.07, 9099.46, -10506.35, 0.00, 0.00, 0.00
2, 25012.50, 18413.46, 5974.82, -6169.62, -2556.48, 5770.24, 9117.12, -10487.33, 0.00, 0.00, 0.00
3, 25005.05, 18397.50, 5974.53, -6187.99, -2418.55, 5738.27, 9102.81, -10508.54, 0.00, 0.00, 0.00
4, 25008.90, 18403.42, 5974.40, -6201.92, -2234.24, 5729.85, 9091.73, -10520.41, 0.00, 0.00, 0.00
5, 25002.91, 18393.25, 5959.76, -6197.27, -2351.07, 5749.29, 9110.93, -10503.35, 0.00, 0.00, 0.00
6, 25013.48, 18402.88, 5970.80, -6165.24, -2528.05, 5781.41, 9143.32, -10469.47, 0.00, 0.00, 0.00
7, 25013.57, 18402.62, 5971.00, -6171.07, -2436.83, 5758.86, 9132.01, -10481.16, 0.05, 0.96, 0.19
8, 24996.40, 18392.67, 5963.91, -6193.60, -2233.65, 5738.61, 9115.73, -10501.45, 0.00, 0.00, 0.00
9, 24993.70, 18391.73, 5950.62, -6201.56, -2312.82, 5743.28, 9102.37, -10510.71, 0.00, 0.00, 0.00
10, 25000.13, 18393.38, 5948.76, -6189.24, -2539.99, 5757.94, 9091.93, -10509.70, 0.00, 0.00, 0.00
11, 25009.66, 18400.89, 5972.86, -6179.72, -2477.11, 5757.94, 9124.41, -10480.60, 0.00, 0.00, 0.00
12, 24991.80, 18387.01, 5959.71, -6208.96, -2257.01, 5722.92, 9113.21, -10497.18, 0.00, 0.00, 0.00
13, 24981.13, 18381.47, 5949.72, -6215.06, -2278.96, 5726.27, 9097.00, -10511.18, 0.00, 0.00, 0.00
14, 24988.38, 18397.79, 5968.56, -6164.81, -2481.33, 5772.61, 9128.54, -10471.30, 0.00, 0.00, 0.00
15, 24996.54, 18424.50, 5989.66, -6143.11, -2494.19, 5779.24, 9139.56, -10461.67, 0.00, 0.00, 0.00
16, 24993.32, 18418.04, 5978.94, -6183.81, -2287.75, 5731.59, 9111.78, -10508.27, 0.04, 0.97, 0.20
17, 24925.93, 18358.27, 5943.69, -6220.49, -2269.53, 5709.48, 9079.21, -10536.41, 0.00, 0.00, 0.00
18, 24908.85, 18348.64, 5961.61, -6181.06, -2464.93, 5758.35, 9103.84, -10496.09, 0.00, 0.00, 0.00
19, 24897.67, 18342.76, 5979.49, -6166.35, -2529.32, 5759.24, 9127.25, -10481.45, 0.00, 0.00, 0.00
20, 24858.78, 18307.73, 5973.57, -6200.55, -2329.39, 5716.41, 9105.99, -10518.15, 0.00, 0.00, 0.00
21, 24798.43, 18261.80, 5940.56, -6239.51, -2256.30, 5688.16, 9073.98, -10547.83, 0.00, 0.00, 0.00
22, 24804.49, 18281.07, 5967.69, -6194.70, -2426.08, 5751.73, 9112.78, -10487.13, 0.00, 0.00, 0.00
23, 24783.81, 18270.90, 5976.43, -6186.31, -2558.11, 5747.28, 9111.13, -10494.17, 0.00, 0.00, 0.00
24, 24764.68, 18263.41, 5980.68, -6210.59, -2381.78, 5713.35, 9100.92, -10525.35, 0.00, 0.00, 0.00
25, 24726.79, 18232.45, 5964.81, -6246.17, -2247.60, 5696.19, 9085.51, -10534.42, 0.00, 0.00, 0.00
26, 24706.46, 18214.10, 5956.05, -6242.44, -2416.07, 5713.93, 9083.57, -10528.39, 0.05, 0.97, 0.19
27, 24699.48, 18199.08, 5963.94, -6233.36, -2584.89, 5722.76, 9094.52, -10513.41, 0.00, 0.00, 0.00
28, 24708.24, 18204.20, 5985.19, -6241.17, -2436.38, 5702.98, 9101.72, -10514.46, 0.00, 0.00, 0.00
29, 24712.18, 18205.92, 5982.24, -6268.88, -2249.68, 5678.82, 9089.36, -10538.53, 0.00, 0.00, 0.00
30, 24696.31, 18183.21, 5966.78, -6274.74, -2368.90, 5688.83, 9084.49, -10535.92, 0.00, 0.00, 0.00
31, 24705.25, 18183.54, 5970.33, -6259.74, -2568.42, 5708.23, 9098.52, -10514.42, 0.00, 0.00, 0.00
32, 24723.62, 18198.81, 5988.97, -6263.29, -2480.19, 5694.91, 9104.33, -10513.21, 0.00, 0.00, 0.00
33, 24739.58, 18219.93, 5992.30, -6284.24, -2264.59, 5671.00, 9095.89, -10531.49, 0.00, 0.00, 0.00
34, 24739.27, 18218.62, 5975.72, -6289.69, -2337.59, 5671.38, 9086.77, -10540.21, 0.00, 0.00, 0.00
35, 24767.01, 18245.42, 5990.58, -6258.87, -2543.83, 5706.69, 9103.87, -10516.76, 0.00, 0.00, 0.00
36, 24792.17, 18259.38, 5998.69, -6265.44, -2514.24, 5689.03, 9106.91, -10509.12, 0.05, 0.97, 0.19
37, 24796.02, 18260.21, 6000.24, -6290.54, -2291.86, 5662.01, 9093.92, -10533.17, 0.00, 0.00, 0.00
38, 24802.52, 18262.25, 5976.59, -6300.53, -2313.63, 5661.61, 9066.96, -10552.73, 0.00, 0.00, 0.00
39, 24834.64, 18288.35, 5988.52, -6265.53, -2522.30, 5701.28, 9107.24, -10507.42, 0.00, 0.00, 0.00
40, 24863.57, 18313.05, 6011.30, -6251.27, -2539.31, 5706.98, 9117.77, -10498.93, 0.00, 0.00, 0.00
41, 24875.41, 18325.95, 6004.75, -6286.11, -2333.95, 5663.95, 9084.31, -10534.76, 0.00, 0.00, 0.00
42, 24872.71, 18334.02, 5987.67, -6301.00, -2291.81, 5656.22, 9067.72, -10553.46, 0.00, 0.00, 0.00
43, 24881.98, 18347.18, 5987.54, -6273.17, -2504.49, 5691.56, 9074.43, -10530.89, 0.00, 0.00, 0.00
44, 24885.58, 18349.13, 5999.39, -6260.48, -2586.86, 5689.68, 9085.22, -10522.78, 0.00, 0.00, 0.00
45, 24910.17, 18368.02, 6022.88, -6257.75, -2363.50, 5678.86, 9096.20, -10525.75, 0.00, 0.00, 0.00
46, 24907.89, 18356.57, 6002.31, -6281.26, -2273.31, 5663.42, 9070.02, -10554.00, 0.05, 0.98, 0.21
47, 24932.61, 18351.18, 6014.30, -6245.52, -2441.35, 5713.62, 9097.76, -10509.92, 0.00, 0.00, 0.00
48, 24955.36, 18345.51, 6026.97, -6218.81, -2562.05, 5729.15, 9115.51, -10487.17, 0.00, 0.00, 0.00
49, 24955.03, 18338.73, 6021.58, -6241.08, -2392.24, 5698.55, 9102.77, -10506.24, 0.00, 0.00, 0.00
50, 24963.54, 18350.74, 6014.54, -6254.78, -2235.15, 5693.06, 9095.21, -10513.95, 0.00, 0.00, 0.00
51, 24947.94, 18336.23, 5989.10, -6261.06, -2398.30, 5700.45, 9084.62, -10521.05, 0.00, 0.00, 0.00
52, 24959.77, 18340.75, 6001.24, -6239.44, -2561.49, 5720.21, 9107.17, -10500.54, 0.00, 0.00, 0.00
53, 24964.53, 18352.66, 6014.14, -6246.26, -2427.00, 5704.25, 9114.39, -10495.28, 0.00, 0.00, 0.00
54, 24948.26, 18351.54, 5994.94, -6284.04, -2244.67, 5673.34, 9088.04, -10535.61, 0.00, 0.00, 0.00
55, 24946.65, 18363.16, 5983.79, -6279.12, -2340.09, 5687.20, 9094.10, -10541.08, 0.00, 0.00, 0.00
56, 24949.91, 18367.59, 5988.12, -6256.28, -2537.79, 5714.65, 9113.95, -10495.46, 0.05, 0.98, 0.20
57, 24957.71, 18372.11, 6004.75, -6260.03, -2467.23, 5706.18, 9117.32, -10477.25, 0.00, 0.00, 0.00
58, 24951.23, 18368.62, 5994.38, -6292.44, -2260.97, 5677.14, 9099.64, -10515.13, 0.00, 0.00, 0.00
59, 24935.02, 18355.99, 5969.57, -6304.62, -2321.54, 5675.85, 9092.04, -10531.52, 0.00, 0.00, 0.00
60, 24947.43, 18369.58, 5979.61, -6273.33, -2530.37, 5713.46, 9111.26, -10492.69, 0.00, 0.00, 0.00
61, 24948.28, 18369.09, 5989.80, -6275.39, -2509.41, 5702.00, 9111.80, -10492.62, 0.00, 0.00, 0.00
62, 24936.59, 18362.65, 5973.03, -6310.79, -2303.53, 5658.12, 9080.26, -10541.53, 0.00, 0.00, 0.00
63, 24948.44, 18384.46, 5975.27, -6296.35, -2289.27, 5680.11, 9091.55, -10525.21, 0.00, 0.00, 0.00
64, 24965.51, 18409.19, 5990.02, -6258.42, -2493.47, 5718.60, 9116.96, -10496.51, 0.00, 0.00, 0.00
65, 24966.81, 18404.00, 5994.13, -6253.10, -2546.47, 5703.23, 9110.55, -10508.47, 0.00, 0.00, 0.00
66, 24973.31, 18413.81, 6006.23, -6260.59, -2320.58, 5680.27, 9100.58, -10530.29, 0.06, 0.97, 0.20
67, 24967.88, 18413.50, 5993.75, -6271.92, -2257.53, 5683.42, 9089.60, -10533.46, 0.00, 0.00, 0.00
68, 24966.25, 18405.86, 5985.57, -6254.73, -2466.00, 5711.90, 9098.03, -10511.89, 0.00, 0.00, 0.00
69, 24977.27, 18409.16, 5996.08, -6243.85, -2559.19, 5712.23, 9103.22, -10505.07, 0.00, 0.00, 0.00
70, 24982.81, 18406.62, 6002.69, -6265.57, -2364.43, 5677.21, 9085.22, -10537.06, 0.00, 0.00, 0.00
71, 24981.87, 18401.16, 5992.50, -6278.56, -2251.33, 5675.11, 9074.52, -10548.46, 0.00, 0.00, 0.00
72, 24980.38, 18394.17, 5982.44, -6266.22, -2433.48, 5703.96, 9086.21, -10525.08, 0.00, 0.00, 0.00
73, 24986.75, 18390.46, 5986.76, -6247.92, -2576.98, 5710.33, 9096.60, -10521.84, 0.00, 0.00, 0.00
74, 24985.67, 18385.29, 5994.60, -6256.28, -2407.31, 5689.84, 9105.50, -10510.62, 0.00, 0.00, 0.00
75, 24975.53, 18375.50, 5980.07, -6276.28, -2250.62, 5674.01, 9089.47, -10520.94, 0.00, 0.00, 0.00
76, 24982.28, 18382.54, 5975.16, -6258.18, -2393.51, 5699.56, 9090.45, -10513.46, 0.06, 0.97, 0.21
77, 24989.25, 18384.06, 5985.66, -6235.29, -2568.17, 5718.20, 9102.77, -10502.91, 0.00, 0.00, 0.00
78, 24992.18, 18383.62, 5990.13, -6244.76, -2439.72, 5699.87, 9108.22, -10504.02, 0.00, 0.00, 0.00
79, 24985.96, 18376.17, 5982.49, -6272.03, -2244.92, 5679.98, 9094.28, -10523.20, 0.00, 0.00, 0.00
80, 24971.21, 18360.42, 5963.69, -6274.67, -2353.39, 5690.33, 9080.69, -10531.09, 0.00, 0.00, 0.00
81, 24980.24, 18365.62, 5966.82, -6258.02, -2562.09, 5716.66, 9099.48, -10497.12, 0.00, 0.00, 0.00
82, 24990.95, 18371.28, 5988.08, -6251.27, -2486.83, 5703.14, 9105.54, -10490.48, 0.00, 0.00, 0.00
83, 24994.35, 18377.00, 5995.79, -6260.10, -2258.22, 5687.13, 9107.84, -10504.18, 0.00, 0.00, 0.00
84, 24993.12, 18379.01, 5981.80, -6261.77, -2304.60, 5699.38, 9102.21, -10501.88, 0.00, 0.00, 0.00
85, 24994.23, 18386.03, 5978.78, -6244.43, -2530.33, 5722.45, 9104.13, -10489.34, 0.00, 0.00, 0.00
86, 24994.90, 18391.82, 5986.38, -6242.60, -2523.60, 5711.34, 9111.60, -10493.00, 0.07, 0.96, 0.20
87, 25002.55, 18402.82, 6002.96, -6248.79, -2292.73, 5695.34, 9103.71, -10511.80, 0.00, 0.00, 0.00
88, 24997.01, 18404.56, 5990.69, -6251.09, -2277.26, 5707.52, 9097.43, -10514.91, 0.00, 0.00, 0.00
89, 24997.01, 18411.22, 5984.32, -6236.38, -2502.37, 5731.05, 9098.70, -10498.90, 0.00, 0.00, 0.00
90, 24998.53, 18409.70, 5993.11, -6233.83, -2538.40, 5722.72, 9102.79, -10496.02, 0.00, 0.00, 0.00
91, 25001.23, 18416.74, 6004.44, -6244.25, -2315.57, 5697.41, 9097.72, -10514.13, 0.00, 0.00, 0.00
92, 25000.22, 18421.70, 6001.51, -6253.93, -2249.73, 5700.37, 9091.37, -10518.28, 0.00, 0.00, 0.00
93, 25006.44, 18421.03, 5998.00, -6224.00, -2461.60, 5728.64, 9105.27, -10491.37, 0.00, 0.00, 0.00
94, 25007.53, 18405.01, 6004.75, -6221.63, -2568.89, 5727.12, 9107.80, -10486.30, 0.00, 0.00, 0.00
95, 25016.38, 18411.00, 6019.88, -6245.73, -2373.93, 5699.31, 9097.27, -10508.78, 0.00, 0.00, 0.00
96, 25010.13, 18415.36, 6008.62, -6240.43, -2247.40, 5694.75, 9089.18, -10516.25, 0.07, 0.96, 0.21
97, 25015.13, 18426.62, 5998.00, -6223.11, -2421.07, 5729.15, 9099.75, -10491.28, 0.00, 0.00, 0.00
98, 25020.99, 18431.56, 6011.19, -6206.36, -2571.37, 5743.68, 9111.69, -10476.31, 0.00, 0.00, 0.00
99, 25023.27, 18428.25, 6019.39, -6217.41, -2410.03, 5720.12, 9110.66, -10490.90, 0.00, 0.00, 0.00
100, 25013.21, 18416.79, 6002.09, -6247.96, -2245.28, 5699.20, 9089.27, -10519.83, 0.00, 0.00, 0.00
101, 25004.16, 18406.86, 5984.77, -6248.65, -2386.70, 5715.07, 9083.61, -10517.68, 0.00, 0.00, 0.00
102, 25004.20, 18411.00, 5983.65, -6230.75, -2577.80, 5728.17, 9094.01, -10497.59, 0.00, 0.00, 0.00
103, 25019.25, 18425.15, 6008.24, -6224.38, -2451.92, 5720.84, 9105.43, -10497.65, 0.00, 0.00, 0.00
104, 25015.60, 18420.21, 6001.98, -6247.85, -2248.74, 5700.45, 9092.91, -10519.13, 0.00, 0.00, 0.00
105, 25011.22, 18424.83, 5991.85, -6241.41, -2331.76, 5720.12, 9095.62, -10509.32, 0.06, 0.97, 0.21
106, 25005.92, 18416.65, 5991.68, -6227.46, -2548.43, 5733.96, 9102.52, -10492.45, 0.00, 0.00, 0.00
107, 25008.76, 18413.99, 5999.74, -6233.03, -2489.58, 5715.81, 9103.96, -10497.16, 0.00, 0.00, 0.00
108, 25009.72, 18419.04, 6007.77, -6249.93, -2260.01, 5699.29, 9100.24, -10511.38, 0.00, 0.00, 0.00
109, 24999.91, 18409.79, 5992.26, -6257.50, -2292.71, 5704.90, 9090.19, -10502.55, 0.00, 0.00, 0.00
110, 25000.11, 18406.08, 5982.24, -6235.78, -2523.76, 5724.62, 9096.96, -10483.59, 0.00, 0.00, 0.00
111, 25004.96, 18409.68, 5997.91, -6231.31, -2524.67, 5714.13, 9096.00, -10497.97, 0.00, 0.00, 0.00
112, 25002.57, 18405.92, 5998.29, -6261.19, -2301.20, 5681.34, 9078.76, -10527.69, 0.00, 0.00, 0.00
113, 25010.46, 18409.46, 5994.02, -6257.64, -2264.37, 5692.72, 9090.39, -10523.45, 0.00, 0.00, 0.00
114, 25002.30, 18400.96, 5987.45, -6238.57, -2491.77, 5720.41, 9095.46, -10506.71, 0.00, 0.00, 0.00
115, 24997.05, 18397.18, 5995.65, -6228.51, -2541.95, 5721.69, 9107.62, -10495.24, 0.06, 0.97, 0.20
116, 24996.49, 18394.52, 5997.78, -6249.23, -2318.39, 5698.53, 9101.50, -10506.79, 0.00, 0.00, 0.00
117, 24982.90, 18382.74, 5980.07, -6266.74, -2250.51, 5691.78, 9080.53, -10526.64, 0.00, 0.00, 0.00
118, 24967.63, 18370.05, 5960.81, -6254.08, -2469.51, 5710.36, 9081.27, -10515.11, 0.00, 0.00, 0.00
119, 24985.43, 18374.41, 5988.39, -6228.00, -2565.73, 5735.06, 9111.13, -10479.82, 0.00, 0.00, 0.00
120, 24992.67, 18374.88, 5986.31, -6248.47, -2375.43, 5711.43, 9107.73, -10491.71, 0.00, 0.00, 0.00
121, 24995.06, 18374.14, 5991.72, -6253.66, -2236.72, 5702.73, 9097.05, -10506.73, 0.00, 0.00, 0.00
122, 24976.49, 18348.28, 5964.32, -6264.17, -2413.85, 5713.91, 9088.04, -10505.36, 0.00, 0.00, 0.00
123, 24962.38, 18332.14, 5954.26, -6264.28, -2589.83, 5710.38, 9088.55, -10501.92, 0.00, 0.00, 0.00
124, 24984.58, 18356.17, 5978.09, -6256.81, -2417.12, 5709.60, 9108.87, -10491.28, 0.00, 0.00, 0.00
125, 24993.81, 18372.37, 5982.09, -6272.84, -2225.59, 5705.84, 9106.84, -10499.44, 0.06, 0.97, 0.19
126, 24973.25, 18359.12, 5953.81, -6269.40, -2365.17, 5710.11, 9095.95, -10507.93, 0.00, 0.00, 0.00
127, 24975.84, 18355.45, 5961.52, -6240.65, -2557.53, 5726.70, 9110.68, -10492.58, 0.00, 0.00, 0.00
128, 24982.86, 18356.93, 5978.62, -6250.37, -2450.65, 5712.68, 9114.39, -10481.76, 0.00, 0.00, 0.00
129, 24973.47, 18349.62, 5968.21, -6282.14, -2243.98, 5687.09, 9096.56, -10501.09, 0.00, 0.00, 0.00
130, 24956.53, 18338.29, 5940.15, -6294.63, -2329.14, 5685.59, 9079.97, -10513.95, 0.00, 0.00, 0.00
131, 24950.22, 18336.88, 5936.58, -6274.78, -2536.88, 5706.71, 9098.99, -10492.51, 0.00, 0.00, 0.00
132, 24947.21, 18336.32, 5943.87, -6283.14, -2492.15, 5692.94, 9104.40, -10496.51, 0.00, 0.00, 0.00
133, 24942.98, 18335.25, 5948.04, -6308.69, -2276.44, 5674.19, 9091.97, -10513.57, 0.00, 0.00, 0.00
134, 24949.98, 18342.60, 5946.19, -6301.72, -2287.32, 5687.49, 9097.25, -10509.63, 0.00, 0.00, 0.00
135, 24941.26, 18321.86, 5936.96, -6284.04, -2525.46, 5702.44, 9098.79, -10498.21, 0.06, 0.97, 0.19
136, 24944.01, 18309.12, 5947.44, -6280.71, -2543.36, 5701.44, 9099.69, -10491.89, 0.00, 0.00, 0.00
137, 24950.42, 18308.89, 5957.81, -6288.31, -2297.45, 5691.40, 9101.96, -10502.19, 0.00, 0.00, 0.00
138, 24939.70, 18303.64, 5940.94, -6291.84, -2258.29, 5695.69, 9090.32, -10509.39, 0.00, 0.00, 0.00
139, 24937.30, 18299.24, 5929.94, -6278.09, -2485.56, 5715.77, 9093.49, -10494.03, 0.00, 0.00, 0.00
140, 24937.64, 18299.33, 5938.63, -6269.31, -2562.54, 5709.31, 9094.57, -10493.79, 0.00, 0.00, 0.00
141, 24931.29, 18297.52, 5943.95, -6289.38, -2351.67, 5680.74, 9080.49, -10519.29, 0.00, 0.00, 0.00
142, 24926.71, 18296.89, 5915.23, -6306.59, -2257.68, 5674.39, 9067.23, -10533.82, 0.00, 0.00, 0.00
143, 24941.77, 18307.33, 5921.27, -6282.54, -2452.03, 5707.58, 9085.29, -10504.00, 0.00, 0.00, 0.00
144, 24950.51, 18314.64, 5959.38, -6259.67, -2561.87, 5725.76, 9106.84, -10480.78, 0.00, 0.00, 0.00
145, 24945.17, 18304.04, 5957.41, -6288.82, -2380.37, 5695.72, 9094.46, -10505.23, 0.06, 0.97, 0.18
146, 24945.19, 18301.03, 5943.71, -6297.25, -2241.57, 5672.72, 9079.99, -10524.83, 0.00, 0.00, 0.00
147, 24949.80, 18305.43, 5940.56, -6275.19, -2400.73, 5699.23, 9089.02, -10501.83, 0.00, 0.00, 0.00
148, 24956.04, 18304.65, 5944.85, -6250.60, -2569.44, 5734.88, 9099.08, -10486.79, 0.00, 0.00, 0.00
149, 24956.88, 18302.61, 5947.08, -6266.18, -2433.52, 5699.00, 9083.79, -10508.16, 0.00, 0.00, 0.00
150, 24961.22, 18310.30, 5946.12, -6282.96, -2246.93, 5683.36, 9071.41, -10526.46, 0.00, 0.00, 0.00
151, 24961.33, 18308.18, 5937.03, -6275.68, -2356.92, 5703.27, 9079.03, -10513.81, 0.00, 0.00, 0.00
152, 24966.18, 18307.24, 5944.20, -6250.49, -2557.96, 5718.85, 9091.26, -10496.56, 0.00, 0.00, 0.00
153, 24966.52, 18299.87, 5952.63, -6264.10, -2464.17, 5695.45, 9094.03, -10502.66, 0.00, 0.00, 0.00
154, 24977.29, 18312.02, 5960.03, -6282.99, -2232.18, 5679.98, 9091.82, -10519.58, 0.00, 0.00, 0.00
155, 24970.27, 18310.48, 5940.74, -6282.94, -2291.59, 5691.36, 9088.13, -10512.07, 0.06, 0.97, 0.18
156, 24966.88, 18306.46, 5942.08, -6266.24, -2525.95, 5708.95, 9093.16, -10485.78, 0.00, 0.00, 0.00
157, 24972.80, 18308.16, 5956.07, -6265.60, -2497.63, 5691.94, 9095.82, -10489.38, 0.00, 0.00, 0.00
158, 24972.29, 18314.04, 5953.97, -6284.48, -2273.98, 5668.25, 9080.35, -10514.39, 0.00, 0.00, 0.00
159, 24956.35, 18303.64, 5930.14, -6296.20, -2296.49, 5669.36, 9066.69, -10524.18, 0.00, 0.00, 0.00
160, 24961.73, 18309.63, 5937.90, -6255.47, -2516.27, 5710.60, 9083.06, -10496.00, 0.00, 0.00, 0.00
161, 24972.46, 18317.32, 5949.56, -6237.75, -2534.06, 5713.62, 9092.56, -10490.32, 0.00, 0.00, 0.00
162, 24973.25, 18315.98, 5947.49, -6265.35, -2312.98, 5676.58, 9076.62, -10517.01, 0.00, 0.00, 0.00
163, 24977.02, 18322.71, 5959.29, -6266.85, -2262.20, 5681.19, 9073.38, -10517.14, 0.00, 0.00, 0.00
164, 24980.35, 18323.96, 5953.54, -6244.09, -2466.67, 5734.45, 9088.96, -10495.28, 0.00, 0.00, 0.00
165, 24966.21, 18303.13, 5934.48, -6256.05, -2557.71, 5711.12, 9079.08, -10505.16, 0.06, 0.97, 0.18
166, 24974.23, 18309.95, 5941.05, -6271.74, -2358.69, 5680.27, 9068.28, -10528.16, 0.00, 0.00, 0.00
167, 24975.68, 18316.83, 5945.77, -6282.72, -2257.46, 5674.75, 9056.03, -10539.54, 0.00, 0.00, 0.00
168, 24977.65, 18325.88, 5949.94, -6259.56, -2446.00, 5705.75, 9062.76, -10518.93, 0.00, 0.00, 0.00
169, 24971.55, 18317.81, 5938.48, -6256.21, -2588.53, 5696.43, 9057.80, -10521.55, 0.00, 0.00, 0.00
170, 24980.89, 18324.50, 5952.60, -6260.95, -2410.90, 5679.51, 9059.70, -10530.00, 0.00, 0.00, 0.00
171, 24990.48, 18338.67, 5954.75, -6266.24, -2244.56, 5680.47, 9059.45, -10534.42, 0.00, 0.00, 0.00
172, 24986.08, 18333.50, 5939.01, -6253.97, -2399.73, 5698.49, 9063.07, -10524.45, 0.00, 0.00, 0.00
173, 24994.21, 18338.31, 5951.53, -6228.29, -2564.71, 5718.31, 9080.64, -10502.91, 0.00, 0.00, 0.00
174, 24986.48, 18331.04, 5952.78, -6246.40, -2437.21, 5690.96, 9073.42, -10512.72, 0.00, 0.00, 0.00
175, 24982.32, 18331.31, 5944.22, -6273.11, -2247.65, 5669.83, 9060.66, -10530.69, 0.06, 0.97, 0.18
176, 24982.52, 18336.28, 5936.42, -6265.40, -2352.21, 5691.38, 9061.82, -10521.17, 0.00, 0.00, 0.00
177, 24988.33, 18337.53, 5943.37, -6233.86, -2553.35, 5720.57, 9084.13, -10495.26, 0.00, 0.00, 0.00
178, 24986.86, 18333.17, 5951.38, -6243.53, -2475.93, 5700.59, 9081.25, -10508.67, 0.00, 0.00, 0.00
179, 24975.57, 18329.01, 5940.67, -6275.97, -2267.72, 5667.87, 9058.78, -10532.32, 0.00, 0.00, 0.00
180, 24976.98, 18332.81, 5926.63, -6275.39, -2317.07, 5681.79, 9058.38, -10526.29, 0.00, 0.00, 0.00
181, 24986.66, 18340.30, 5932.33, -6243.62, -2534.06, 5713.06, 9075.08, -10497.38, 0.00, 0.00, 0.00
182, 24989.27, 18340.07, 5949.18, -6243.60, -2513.14, 5700.16, 9078.07, -10504.16, 0.00, 0.00, 0.00
183, 24991.04, 18341.42, 5954.55, -6264.39, -2283.48, 5674.68, 9069.33, -10528.25, 0.00, 0.00, 0.00
184, 24979.88, 18334.53, 5928.71, -6276.35, -2292.08, 5672.40, 9048.68, -10540.10, 0.00, 0.00, 0.00
185, 24978.43, 18335.45, 5925.92, -6262.69, -2513.97, 5699.69, 9062.83, -10522.31, 0.06, 0.97, 0.19
186, 24983.06, 18338.46, 5943.62, -6247.16, -2544.95, 5688.47, 9069.67, -10521.88, 0.00, 0.00, 0.00
187, 24985.40, 18339.87, 5946.66, -6264.52, -2310.86, 5665.76, 9063.88, -10529.71, 0.00, 0.00, 0.00
188, 24983.95, 18340.81, 5933.61, -6275.27, -2250.42, 5667.20, 9053.24, -10538.65, 0.00, 0.00, 0.00
189, 24994.53, 18351.54, 5942.57, -6245.10, -2461.84, 5708.88, 9071.50, -10504.94, 0.00, 0.00, 0.00
190, 24997.61, 18351.79, 5949.94, -6236.07, -2551.61, 5711.76, 9082.59, -10498.64, 0.00, 0.00, 0.00
191, 24991.48, 18344.84, 5943.69, -6263.72, -2358.89, 5672.07, 9064.55, -10529.75, 0.00, 0.00, 0.00
192, 24992.13, 18346.36, 5934.48, -6277.17, -2252.97, 5663.53, 9046.51, -10545.33, 0.00, 0.00, 0.00
193, 24991.44, 18352.05, 5932.62, -6256.19, -2433.59, 5693.86, 9053.08, -10526.02, 0.00, 0.00, 0.00
194, 25004.92, 18360.42, 5949.79, -6227.67, -2565.67, 5710.38, 9068.93, -10503.91, 0.06, 0.96, 0.19
195, 24996.13, 18350.89, 5950.24, -6250.89, -2408.29, 5678.64, 9056.70, -10529.08, 0.00, 0.00, 0.00
196, 25005.52, 18361.69, 5955.15, -6254.78, -2232.78, 5677.21, 9060.23, -10532.41, 0.00, 0.00, 0.00
197, 24989.94, 18343.36, 5926.88, -6261.33, -2387.39, 5684.92, 9048.95, -10530.96, 0.00, 0.00, 0.00
198, 24998.39, 18348.81, 5931.79, -6244.38, -2566.11, 5699.99, 9061.42, -10507.82, 0.00, 0.00, 0.00
199, 24999.64, 18352.03, 5938.75, -6256.05, -2451.03, 5669.88, 9058.02, -10528.32, 0.00, 0.00, 0.00
200, 24995.60, 18346.69, 5931.50, -6280.15, -2256.77, 5642.45, 9040.97, -10553.82, 0.00, 0.00, 0.00
201, 24997.88, 18344.66, 5921.60, -6270.94, -2349.30, 5665.05, 9043.74, -10541.02, 0.00, 0.00, 0.00
202, 24997.90, 18345.93, 5920.26, -6249.77, -2557.62, 5688.81, 9054.09, -10521.39, 0.00, 0.00, 0.00
203, 24996.47, 18343.52, 5932.56, -6254.96, -2492.64, 5668.58, 9052.88, -10530.82, 0.00, 0.00, 0.00
204, 24996.94, 18345.22, 5931.12, -6277.02, -2273.04, 5648.26, 9040.03, -10552.53, 0.05, 0.97, 0.19
205, 24999.04, 18351.27, 5924.91, -6272.32, -2313.36, 5662.39, 9038.98, -10547.23, 0.00, 0.00, 0.00
206, 24993.52, 18348.68, 5924.29, -6250.80, -2538.13, 5688.32, 9045.88, -10526.93, 0.00, 0.00, 0.00
207, 24996.87, 18349.13, 5936.49, -6250.29, -2525.88, 5675.53, 9049.95, -10528.61, 0.00, 0.00, 0.00
208, 25016.92, 18372.87, 5955.47, -6257.66, -2282.65, 5662.75, 9055.83, -10535.94, 0.00, 0.00, 0.00
209, 25009.03, 18374.52, 5939.31, -6264.05, -2261.91, 5664.67, 9044.10, -10543.36, 0.00, 0.00, 0.00
210, 25013.68, 18379.93, 5940.78, -6239.87, -2484.08, 5691.54, 9056.77, -10520.72, 0.00, 0.00, 0.00
211, 25013.41, 18377.96, 5954.64, -6237.14, -2548.30, 5682.89, 9059.59, -10518.37, 0.00, 0.00, 0.00
212, 25019.47, 18390.88, 5971.29, -6254.42, -2328.87, 5661.61, 9050.91, -10536.66, 0.00, 0.00, 0.00
213, 24994.93, 18378.92, 5944.18, -6282.11, -2272.30, 5639.34, 9027.74, -10569.38, 0.00, 0.00, 0.00
214, 24995.80, 18384.89, 5943.31, -6262.40, -2478.96, 5668.04, 9039.13, -10549.11, 0.05, 0.97, 0.20
215, 25018.82, 18409.54, 5977.26, -6230.73, -2564.55, 5690.78, 9066.29, -10515.69, 0.00, 0.00, 0.00
216, 25023.80, 18425.21, 5995.41, -6241.19, -2367.92, 5669.85, 9062.87, -10530.89, 0.00, 0.00, 0.00
217, 25016.83, 18429.59, 5988.10, -6258.29, -2247.31, 5659.26, 9047.18, -10550.65, 0.00, 0.00, 0.00
218, 25016.12, 18432.28, 5982.89, -6243.22, -2422.57, 5685.01, 9052.55, -10539.79, 0.00, 0.00, 0.00
219, 25018.80, 18433.66, 5989.86, -6230.10, -2575.73, 5691.49, 9064.88, -10517.57, 0.00, 0.00, 0.00
220, 25018.33, 18440.12, 6000.15, -6250.67, -2421.05, 5660.98, 9055.50, -10532.05, 0.00, 0.00, 0.00
221, 25018.73, 18451.68, 5997.80, -6271.14, -2254.04, 5647.30, 9039.58, -10556.77, 0.00, 0.00, 0.00
222, 25019.29, 18461.06, 5989.86, -6258.76, -2387.77, 5671.49, 9044.50, -10546.80, 0.00, 0.00, 0.00
223, 25029.33, 18475.15, 6002.07, -6237.97, -2565.56, 5693.08, 9062.80, -10515.85, 0.00, 0.00, 0.00
224, 25027.34, 18470.92, 6005.98, -6254.87, -2461.06, 5667.15, 9056.21, -10531.45, 0.04, 0.97, 0.19
225, 25023.98, 18474.37, 5996.66, -6281.56, -2266.53, 5644.91, 9043.31, -10556.35, 0.00, 0.00, 0.00
226, 25034.65, 18493.56, 5992.32, -6268.77, -2347.25, 5669.68, 9048.17, -10537.55, 0.00, 0.00, 0.00
227, 25049.15, 18502.33, 6004.59, -6236.76, -2551.21, 5701.73, 9067.75, -10504.89, 0.00, 0.00, 0.00
228, 25055.66, 18504.54, 6017.40, -6241.48, -2497.74, 5685.34, 9068.79, -10510.48, 0.00, 0.00, 0.00
229, 25064.82, 18512.99, 6019.10, -6256.48, -2277.98, 5664.38, 9060.12, -10530.15, 0.00, 0.00, 0.00
230, 25063.84, 18510.69, 6005.33, -6257.17, -2307.75, 5675.78, 9052.70, -10532.70, 0.00, 0.00, 0.00
231, 25073.31, 18516.77, 6009.42, -6232.43, -2524.56, 5704.25, 9065.73, -10509.61, 0.00, 0.00, 0.00
232, 25074.90, 18516.10, 6012.22, -6237.32, -2521.52, 5688.68, 9063.92, -10516.94, 0.00, 0.00, 0.00
233, 25075.88, 18517.30, 6014.32, -6263.20, -2301.13, 5663.28, 9052.68, -10538.60, 0.00, 0.00, 0.00
234, 25077.00, 18520.56, 6001.47, -6270.71, -2282.49, 5666.14, 9044.34, -10541.66, 0.04, 0.97, 0.20
235, 25081.36, 18526.51, 6001.91, -6243.20, -2503.13, 5694.15, 9053.44, -10518.46, 0.00, 0.00, 0.00
236, 25099.04, 18535.92, 6023.06, -6225.68, -2551.41, 5700.79, 9070.81, -10503.00, 0.00, 0.00, 0.00
237, 25090.30, 18527.32, 6015.61, -6254.78, -2343.07, 5666.01, 9059.47, -10528.54, 0.00, 0.00, 0.00
238, 25087.62, 18530.36, 6005.62, -6261.60, -2261.62, 5665.52, 9050.62, -10535.76, 0.00, 0.00, 0.00
239, 25091.17, 18534.54, 6000.95, -6238.77, -2461.84, 5695.47, 9057.66, -10515.85, 0.00, 0.00, 0.00
240, 25094.39, 18533.57, 6009.11, -6222.88, -2573.11, 5698.15, 9065.51, -10507.58, 0.00, 0.00, 0.00
241, 25099.11, 18538.67, 6021.43, -6233.59, -2380.21, 5674.97, 9060.64, -10523.31, 0.00, 0.00, 0.00
242, 25093.90, 18537.62, 6010.34, -6252.43, -2251.22, 5659.77, 9038.11, -10548.84, 0.00, 0.00, 0.00
243, 25090.68, 18532.21, 6000.19, -6244.59, -2424.83, 5678.89, 9053.08, -10533.80, 0.00, 0.00, 0.00
244, 25090.53, 18525.55, 6003.75, -6232.31, -2584.06, 5693.50, 9067.97, -10497.05, 0.04, 0.97, 0.20
245, 25100.81, 18534.04, 6017.74, -6239.02, -2419.60, 5682.17, 9069.29, -10502.84, 0.00, 0.00, 0.00
246, 25101.07, 18539.79, 6011.99, -6254.96, -2235.53, 5673.05, 9063.86, -10518.02, 0.00, 0.00, 0.00
247, 25094.91, 18535.56, 5997.17, -6250.13, -2366.22, 5690.33, 9060.84, -10514.17, 0.00, 0.00, 0.00
248, 25086.35, 18526.60, 5994.38, -6241.50, -2567.75, 5697.41, 9064.06, -10506.01, 0.00, 0.00, 0.00
249, 25089.23, 18525.82, 6010.72, -6239.06, -2461.89, 5684.96, 9075.25, -10504.51, 0.00, 0.00, 0.00
250, 25089.14, 18525.77, 6010.90, -6250.02, -2248.72, 5667.15, 9067.97, -10522.60, 0.00, 0.00, 0.00
251, 25078.32, 18522.69, 5992.57, -6245.28, -2334.97, 5675.24, 9060.53, -10523.94, 0.00, 0.00, 0.00
252, 25082.84, 18529.84, 6003.05, -6220.62, -2541.19, 5702.33, 9076.80, -10497.88, 0.00, 0.00, 0.00
253, 25087.33, 18529.66, 6013.94, -6224.42, -2485.45, 5691.16, 9079.81, -10496.31, 0.00, 0.00, 0.00
254, 25083.60, 18525.33, 6007.50, -6248.97, -2269.06, 5669.48, 9063.27, -10518.98, 0.05, 0.97, 0.20
255, 25081.36, 18529.53, 5999.19, -6245.48, -2302.36, 5681.57, 9059.41, -10516.81, 0.00, 0.00, 0.00
0, 25089.97, 18535.16, 6004.75, -6218.30, -2519.96, 5713.37, 9078.90, -10485.78, 0.00, 0.00, 0.00
1, 25095.26, 18531.23, 6012.04, -6220.69, -2531.42, 5699.23, 9080.80, -10489.34, 0.00, 0.00, 0.00
2, 25085.32, 18523.14, 6007.77, -6250.64, -2311.22, 5664.89, 9063.59, -10520.05, 0.00, 0.00, 0.00
3, 25082.77, 18521.62, 5996.79, -6253.33, -2275.85, 5669.54, 9055.09, -10525.57, 0.00, 0.00, 0.00
4, 25092.98, 18530.74, 6003.07, -6220.76, -2481.40, 5710.62, 9075.10, -10492.18, 0.00, 0.00, 0.00
5, 25086.84, 18515.27, 6002.81, -6224.98, -2556.06, 5699.00, 9071.88, -10497.03, 0.00, 0.00, 0.00
6, 25083.26, 18507.29, 6004.08, -6252.83, -2351.09, 5663.13, 9060.66, -10523.80, 0.00, 0.00, 0.00
7, 25089.18, 18510.26, 5998.52, -6253.75, -2250.57, 5667.15, 9059.50, -10525.08, 0.00, 0.00, 0.00
8, 25086.12, 18505.25, 5990.80, -6230.59, -2446.22, 5698.62, 9068.48, -10504.49, 0.06, 0.97, 0.21
9, 25085.00, 18496.83, 5991.92, -6222.41, -2569.91, 5701.62, 9075.86, -10489.81, 0.00, 0.00, 0.00
10, 25090.08, 18497.90, 5999.57, -6236.67, -2381.29, 5682.71, 9073.53, -10500.98, 0.00, 0.00, 0.00
11, 25076.38, 18492.38, 5984.68, -6262.13, -2244.07, 5669.48, 9055.79, -10521.46, 0.00, 0.00, 0.00
12, 25072.87, 18491.55, 5975.56, -6247.89, -2405.20, 5695.49, 9061.13, -10507.38, 0.00, 0.00, 0.00
13, 25076.64, 18487.19, 5989.22, -6224.98, -2560.12, 5710.40, 9080.31, -10491.73, 0.00, 0.00, 0.00
14, 25079.73, 18486.39, 5999.52, -6236.78, -2416.72, 5686.44, 9077.36, -10498.66, 0.00, 0.00, 0.00
15, 25077.00, 18481.85, 5990.85, -6261.55, -2236.31, 5667.24, 9060.15, -10517.21, 0.00, 0.00, 0.00
16, 25066.65, 18467.41, 5972.72, -6257.91, -2362.85, 5681.34, 9052.17, -10517.03, 0.00, 0.00, 0.00
17, 25066.61, 18465.47, 5980.68, -6232.87, -2557.91, 5706.06, 9065.78, -10500.22, 0.06, 0.97, 0.20
18, 25063.61, 18454.22, 5990.40, -6239.22, -2466.83, 5686.60, 9063.70, -10504.87, 0.00, 0.00, 0.00
19, 25066.77, 18462.03, 5994.54, -6251.34, -2249.35, 5671.60, 9060.57, -10513.37, 0.00, 0.00, 0.00
20, 25056.17, 18454.99, 5977.55, -6248.85, -2319.64, 5684.67, 9056.55, -10513.66, 0.00, 0.00, 0.00
21, 25054.72, 18447.88, 5977.64, -6224.25, -2535.29, 5708.17, 9065.29, -10495.80, 0.00, 0.00, 0.00
22, 25051.97, 18444.05, 5985.10, -6229.23, -2503.15, 5691.00, 9064.77, -10501.79, 0.00, 0.00, 0.00
23, 25058.07, 18452.73, 5992.88, -6244.07, -2274.09, 5672.16, 9058.89, -10521.88, 0.00, 0.00, 0.00
24, 25048.35, 18445.75, 5974.64, -6254.82, -2289.06, 5671.71, 9047.00, -10532.63, 0.00, 0.00, 0.00
25, 25055.19, 18451.12, 5977.50, -6228.92, -2494.37, 5704.43, 9064.17, -10502.84, 0.00, 0.00, 0.00
0, 24820.99, 18323.27, 5510.89, -6374.56, -2351.90, 5569.47, 8829.05, -10500.00, 0.06, 0.97, 0.20
1, 24814.19, 18316.43, 5496.03, -6377.98, -2430.33, 5575.87, 8819.13, -10505.21, 0.00, 0.00, 0.00
2, 24816.02, 18312.78, 5499.74, -6354.73, -2655.92, 5602.06, 8829.90, -10482.41, 0.00, 0.00, 0.00
3, 24817.50, 18307.84, 5510.55, -6356.86, -2628.43, 5586.84, 8827.06, -10490.21, 0.00, 0.00, 0.00
4, 24812.09, 18305.43, 5507.80, -6380.10, -2405.76, 5561.92, 8817.72, -10509.28, 0.00, 0.00, 0.00
5, 24809.74, 18305.09, 5497.95, -6378.58, -2405.23, 5572.27, 8812.71, -10508.16, 0.00, 0.00, 0.00
6, 24816.04, 18312.16, 5501.75, -6347.92, -2629.06, 5600.48, 8826.08, -10481.67, 0.00, 0.00, 0.00
7, 24822.62, 18316.54, 5513.21, -6340.43, -2651.34, 5596.79, 8835.44, -10480.33, 0.07, 0.97, 0.20
8, 24820.16, 18317.10, 5511.85, -6363.97, -2431.65, 5569.79, 8821.52, -10503.73, 0.00, 0.00, 0.00
9, 24811.42, 18308.63, 5493.30, -6375.70, -2385.18, 5568.02, 8809.36, -10511.04, 0.00, 0.00, 0.00
10, 24809.50, 18299.46, 5484.36, -6355.52, -2602.57, 5593.95, 8817.90, -10494.75, 0.00, 0.00, 0.00
11, 24824.76, 18309.05, 5503.58, -6332.16, -2676.04, 5603.45, 8839.87, -10480.15, 0.00, 0.00, 0.00
12, 24824.79, 18309.16, 5509.37, -6347.31, -2468.71, 5581.32, 8832.83, -10481.22, 0.00, 0.00, 0.00
13, 24817.21, 18306.06, 5496.18, -6363.03, -2362.71, 5576.27, 8818.17, -10495.71, 0.00, 0.00, 0.00
14, 24814.26, 18303.33, 5487.49, -6347.67, -2553.08, 5605.50, 8826.21, -10480.78, 0.00, 0.00, 0.00
15, 24814.30, 18300.00, 5496.36, -6332.72, -2684.94, 5613.04, 8838.91, -10465.38, 0.00, 0.00, 0.00
16, 24804.00, 18291.71, 5497.57, -6356.61, -2512.02, 5582.26, 8831.15, -10490.86, 0.07, 0.97, 0.20
17, 24805.27, 18296.49, 5494.15, -6372.28, -2348.97, 5574.50, 8826.12, -10503.04, 0.00, 0.00, 0.00
18, 24806.28, 18300.58, 5486.35, -6358.74, -2499.44, 5598.91, 8833.54, -10485.74, 0.00, 0.00, 0.00
19, 24802.70, 18293.99, 5486.08, -6345.12, -2671.21, 5609.15, 8845.12, -10471.26, 0.00, 0.00, 0.00
20, 24807.06, 18291.42, 5499.38, -6356.14, -2549.98, 5584.49, 8841.46, -10485.18, 0.00, 0.00, 0.00
21, 24812.96, 18296.22, 5499.40, -6372.33, -2357.24, 5571.82, 8831.53, -10499.37, 0.00, 0.00, 0.00
22, 24803.78, 18292.18, 5482.64, -6368.55, -2466.65, 5585.57, 8828.71, -10492.87, 0.00, 0.00, 0.00
23, 24810.90, 18298.01, 5490.15, -6342.24, -2670.07, 5610.78, 8845.28, -10469.47, 0.00, 0.00, 0.00
24, 24814.46, 18302.23, 5499.49, -6346.31, -2591.93, 5596.34, 8842.44, -10476.46, 0.00, 0.00, 0.00
25, 24796.80, 18290.57, 5484.11, -6379.12, -2382.56, 5566.32, 8817.29, -10509.05, 0.00, 0.00, 0.00
26, 24803.93, 18302.26, 5485.21, -6365.31, -2423.62, 5587.15, 8825.61, -10493.96, 0.07, 0.97, 0.21
27, 24813.34, 18305.70, 5490.01, -6338.98, -2644.79, 5613.71, 8838.26, -10469.38, 0.00, 0.00, 0.00
28, 24815.80, 18306.21, 5502.15, -6338.22, -2626.58, 5603.76, 8841.41, -10470.65, 0.00, 0.00, 0.00
29, 24810.30, 18308.29, 5499.89, -6363.72, -2402.99, 5575.22, 8825.38, -10499.40, 0.00, 0.00, 0.00
30, 24804.56, 18299.19, 5484.81, -6367.81, -2398.50, 5579.51, 8816.71, -10509.12, 0.00, 0.00, 0.00
31, 24805.18, 18296.60, 5482.66, -6342.33, -2618.37, 5611.43, 8833.88, -10480.44, 0.00, 0.00, 0.00
32, 24811.31, 18302.81, 5495.82, -6331.33, -2654.47, 5611.79, 8846.33, -10457.31, 0.00, 0.00, 0.00
33, 24806.61, 18301.81, 5496.41, -6355.14, -2433.66, 5581.19, 8831.78, -10486.72, 0.00, 0.00, 0.00
34, 24802.59, 18301.38, 5481.74, -6362.49, -2370.76, 5581.25, 8821.79, -10497.79, 0.00, 0.00, 0.00
35, 24798.83, 18297.21, 5469.78, -6344.12, -2583.77, 5609.37, 8827.15, -10479.55, 0.00, 0.00, 0.00
36, 24805.36, 18300.63, 5480.27, -6326.17, -2674.19, 5616.64, 8840.05, -10464.21, 0.06, 0.97, 0.21
37, 24803.71, 18299.48, 5482.61, -6344.27, -2471.41, 5590.04, 8831.22, -10485.40, 0.00, 0.00, 0.00
38, 24800.58, 18302.59, 5471.01, -6359.18, -2350.08, 5582.26, 8824.11, -10501.77, 0.00, 0.00, 0.00
39, 24794.65, 18297.61, 5459.01, -6347.49, -2534.96, 5604.16, 8826.82, -10484.06, 0.00, 0.00, 0.00
40, 24790.97, 18286.27, 5464.06, -6334.73, -2672.55, 5608.90, 8838.95, -10466.11, 0.00, 0.00, 0.00
41, 24799.13, 18285.31, 5481.74, -6342.64, -2495.17, 5591.94, 8842.10, -10477.98, 0.00, 0.00, 0.00
42, 24789.89, 18280.33, 5468.78, -6371.41, -2349.17, 5572.92, 8818.30, -10504.67, 0.00, 0.00, 0.00
43, 24786.34, 18280.55, 5458.23, -6360.84, -2501.92, 5597.32, 8823.42, -10484.04, 0.00, 0.00, 0.00
44, 24793.13, 18280.57, 5470.14, -6340.65, -2676.98, 5616.57, 8842.30, -10463.57, 0.00, 0.00, 0.00
45, 24801.74, 18287.64, 5487.89, -6347.05, -2548.03, 5601.55, 8846.22, -10472.55, 0.00, 0.00, 0.00
46, 24795.01, 18282.94, 5481.50, -6371.63, -2347.04, 5579.69, 8833.21, -10496.56, 0.06, 0.96, 0.21
47, 24786.77, 18277.04, 5468.38, -6368.88, -2445.30, 5592.43, 8828.92, -10491.51, 0.00, 0.00, 0.00
48, 24792.98, 18280.35, 5473.09, -6344.41, -2656.53, 5615.07, 8841.86, -10466.38, 0.00, 0.00, 0.00
49, 24795.77, 18279.05, 5484.67, -6348.59, -2587.53, 5599.92, 8844.74, -10480.78, 0.00, 0.00, 0.00
50, 24789.54, 18274.03, 5479.19, -6375.23, -2371.72, 5571.57, 8823.93, -10504.13, 0.00, 0.00, 0.00
51, 24789.78, 18272.42, 5469.09, -6369.53, -2416.04, 5587.13, 8819.28, -10484.96, 0.00, 0.00, 0.00
52, 24792.31, 18265.58, 5468.20, -6345.44, -2641.66, 5615.65, 8831.62, -10465.31, 0.00, 0.00, 0.00
53, 24797.83, 18265.60, 5482.97, -6341.88, -2633.88, 5606.96, 8834.48, -10471.70, 0.00, 0.00, 0.00
54, 24796.13, 18264.62, 5484.02, -6364.52, -2407.44, 5577.90, 8818.34, -10497.43, 0.00, 0.00, 0.00
55, 24792.13, 18260.66, 5469.58, -6372.19, -2395.10, 5576.69, 8807.50, -10508.36, 0.00, 0.00, 0.00
56, 24799.88, 18266.63, 5475.26, -6342.24, -2612.74, 5608.48, 8824.87, -10477.74, 0.07, 0.96, 0.21
57, 24806.86, 18268.48, 5493.41, -6325.12, -2655.52, 5613.71, 8839.58, -10465.15, 0.00, 0.00, 0.00
58, 24799.15, 18258.56, 5493.03, -6344.70, -2442.06, 5587.51, 8828.58, -10487.64, 0.00, 0.00, 0.00
59, 24784.42, 18249.04, 5471.01, -6358.47, -2375.23, 5581.48, 8812.71, -10504.13, 0.00, 0.00, 0.00
60, 24786.16, 18251.41, 5462.54, -6332.79, -2570.90, 5618.51, 8825.59, -10478.14, 0.00, 0.00, 0.00
61, 24794.41, 18253.46, 5471.77, -6316.63, -2671.21, 5624.24, 8837.75, -10464.46, 0.00, 0.00, 0.00
62, 24799.01, 18254.36, 5478.05, -6334.98, -2488.46, 5596.76, 8828.69, -10485.74, 0.00, 0.00, 0.00
63, 24786.61, 18245.24, 5458.32, -6362.71, -2376.59, 5574.68, 8806.52, -10511.87, 0.00, 0.00, 0.00
64, 24799.10, 18255.56, 5465.38, -6334.28, -2541.24, 5616.08, 8827.80, -10469.83, 0.00, 0.00, 0.00
65, 24804.71, 18260.19, 5473.70, -6318.26, -2691.24, 5632.04, 8845.55, -10452.35, 0.00, 0.00, 0.00
66, 24799.24, 18257.11, 5477.03, -6338.49, -2539.40, 5601.59, 8837.63, -10473.63, 0.07, 0.97, 0.21
67, 24790.90, 18253.91, 5466.25, -6359.99, -2364.46, 5584.58, 8824.60, -10491.66, 0.00, 0.00, 0.00
68, 24788.40, 18254.85, 5456.11, -6348.97, -2498.61, 5600.23, 8824.83, -10479.53, 0.00, 0.00, 0.00
69, 24800.53, 18263.30, 5470.95, -6323.29, -2683.19, 5618.40, 8844.38, -10455.27, 0.00, 0.00, 0.00
70, 24800.82, 18262.43, 5485.14, -6335.00, -2572.82, 5598.49, 8846.24, -10470.36, 0.00, 0.00, 0.00
71, 24783.66, 18253.19, 5469.43, -6369.08, -2371.54, 5570.01, 8824.36, -10498.59, 0.00, 0.00, 0.00
72, 24780.39, 18248.10, 5457.22, -6362.80, -2457.98, 5586.21, 8822.39, -10483.57, 0.00, 0.00, 0.00
73, 24786.59, 18253.78, 5463.12, -6334.80, -2667.08, 5616.05, 8840.63, -10457.40, 0.00, 0.00, 0.00
74, 24791.08, 18257.91, 5474.46, -6336.70, -2613.23, 5602.87, 8845.57, -10464.44, 0.00, 0.00, 0.00
75, 24789.60, 18258.22, 5469.49, -6362.11, -2390.34, 5581.03, 8832.18, -10487.19, 0.00, 0.00, 0.00
76, 24784.13, 18255.90, 5450.43, -6369.38, -2420.40, 5588.92, 8821.92, -10494.93, 0.07, 0.97, 0.21
77, 24789.49, 18259.18, 5454.74, -6345.01, -2644.75, 5616.79, 8835.60, -10469.78, 0.00, 0.00, 0.00
78, 24791.68, 18261.78, 5468.06, -6343.96, -2634.71, 5604.34, 8841.61, -10461.06, 0.00, 0.00, 0.00
79, 24790.12, 18265.17, 5471.57, -6364.19, -2410.52, 5575.44, 8828.47, -10486.92, 0.00, 0.00, 0.00
80, 24778.65, 18258.65, 5459.26, -6373.98, -2401.65, 5574.77, 8812.58, -10495.98, 0.00, 0.00, 0.00
81, 24790.83, 18271.43, 5467.59, -6339.96, -2616.63, 5610.76, 8831.53, -10465.47, 0.00, 0.00, 0.00
82, 24796.71, 18276.04, 5481.97, -6324.58, -2669.89, 5613.77, 8846.98, -10459.32, 0.00, 0.00, 0.00
83, 24790.27, 18267.21, 5481.83, -6346.82, -2456.32, 5583.15, 8836.49, -10486.03, 0.00, 0.00, 0.00
84, 24783.26, 18266.05, 5463.39, -6360.46, -2373.02, 5576.74, 8823.10, -10495.10, 0.00, 0.00, 0.00
85, 24779.01, 18264.24, 5453.40, -6341.19, -2575.35, 5602.51, 8828.74, -10474.94, 0.00, 0.00, 0.00
86, 24789.45, 18271.46, 5467.01, -6316.54, -2686.30, 5614.89, 8844.58, -10459.43, 0.06, 0.96, 0.20
87, 24795.01, 18279.26, 5475.31, -6330.17, -2499.26, 5593.64, 8839.20, -10475.64, 0.00, 0.00, 0.00
88, 24781.36, 18273.98, 5459.06, -6349.10, -2360.70, 5585.10, 8823.71, -10492.22, 0.00, 0.00, 0.00
89, 24769.96, 18268.53, 5440.73, -6340.68, -2540.39, 5604.52, 8819.28, -10481.94, 0.00, 0.00, 0.00
90, 24789.29, 18287.06, 5463.30, -6307.13, -2692.02, 5633.02, 8847.33, -10450.27, 0.00, 0.00, 0.00
91, 24789.47, 18278.99, 5470.88, -6323.67, -2545.01, 5606.02, 8838.64, -10471.84, 0.00, 0.00, 0.00
92, 24784.71, 18278.54, 5461.94, -6347.09, -2366.87, 5582.59, 8819.77, -10497.47, 0.00, 0.00, 0.00
93, 24783.68, 18277.22, 5451.77, -6340.14, -2489.56, 5601.86, 8822.19, -10483.08, 0.00, 0.00, 0.00
94, 24782.52, 18271.34, 5455.23, -6323.55, -2684.47, 5618.42, 8834.62, -10467.08, 0.00, 0.00, 0.00
95, 24783.52, 18276.02, 5468.56, -6330.89, -2580.96, 5596.94, 8836.85, -10474.59, 0.00, 0.00, 0.00
96, 24777.33, 18268.71, 5461.09, -6356.21, -2367.34, 5577.01, 8824.31, -10486.52, 0.07, 0.96, 0.21
97, 24763.72, 18257.42, 5440.28, -6360.39, -2447.54, 5583.06, 8817.47, -10485.23, 0.00, 0.00, 0.00
98, 24768.59, 18260.62, 5445.44, -6332.34, -2652.15, 5609.95, 8837.77, -10463.34, 0.00, 0.00, 0.00
99, 24780.06, 18267.83, 5465.52, -6325.70, -2594.55, 5606.20, 8850.75, -10459.23, 0.00, 0.00, 0.00
100, 24774.47, 18266.16, 5465.98, -6353.80, -2380.82, 5577.74, 8833.83, -10486.34, 0.00, 0.00, 0.00
101, 24767.68, 18262.43, 5450.61, -6361.08, -2403.57, 5580.65, 8823.10, -10491.37, 0.00, 0.00, 0.00
102, 24767.50, 18260.86, 5445.85, -6340.43, -2633.08, 5604.65, 8831.89, -10473.00, 0.00, 0.00, 0.00
103, 24776.28, 18268.82, 5461.27, -6328.99, -2646.47, 5604.50, 8840.76, -10469.20, 0.00, 0.00, 0.00
104, 24777.29, 18270.16, 5466.79, -6347.65, -2418.24, 5580.18, 8830.75, -10482.77, 0.00, 0.00, 0.00
105, 24759.21, 18256.64, 5440.28, -6367.54, -2392.22, 5565.94, 8806.50, -10500.49, 0.08, 0.96, 0.21
106, 24776.35, 18273.85, 5452.91, -6326.01, -2598.59, 5610.33, 8831.20, -10461.51, 0.00, 0.00, 0.00
107, 24785.04, 18279.32, 5465.92, -6307.57, -2668.46, 5616.30, 8843.20, -10450.65, 0.00, 0.00, 0.00
108, 24781.00, 18277.87, 5467.15, -6328.78, -2464.10, 5587.44, 8828.85, -10480.78, 0.00, 0.00, 0.00
109, 24774.27, 18280.28, 5452.35, -6343.51, -2369.11, 5582.10, 8815.86, -10495.53, 0.00, 0.00, 0.00
110, 24771.45, 18280.96, 5440.30, -6329.16, -2564.84, 5608.23, 8820.87, -10480.78, 0.00, 0.00, 0.00
111, 24777.82, 18284.67, 5449.11, -6313.38, -2689.52, 5613.73, 8831.49, -10465.76, 0.00, 0.00, 0.00
112, 24782.63, 18289.29, 5456.69, -6325.97, -2501.76, 5591.42, 8829.68, -10466.76, 0.00, 0.00, 0.00
113, 24779.99, 18290.90, 5444.46, -6345.59, -2357.57, 5577.97, 8815.21, -10490.63, 0.00, 0.00, 0.00
114, 24780.66, 18294.19, 5437.46, -6332.94, -2530.98, 5600.74, 8815.73, -10480.64, 0.00, 0.00, 0.00
115, 24779.72, 18289.67, 5437.93, -6321.99, -2702.82, 5613.62, 8825.12, -10465.85, 0.08, 0.96, 0.20
116, 24780.82, 18286.65, 5446.85, -6332.49, -2561.76, 5590.13, 8824.60, -10476.64, 0.00, 0.00, 0.00
117, 24776.26, 18287.19, 5442.45, -6351.07, -2372.57, 5572.16, 8815.01, -10492.20, 0.00, 0.00, 0.00
118, 24771.65, 18285.56, 5431.99, -6344.34, -2483.82, 5592.54, 8818.99, -10481.94, 0.00, 0.00, 0.00
119, 24778.99, 18289.65, 5443.88, -6318.44, -2680.02, 5618.02, 8837.12, -10456.82, 0.00, 0.00, 0.00
120, 24784.53, 18297.05, 5459.82, -6322.17, -2589.23, 5599.25, 8839.62, -10466.99, 0.00, 0.00, 0.00
121, 24776.68, 18294.77, 5452.57, -6350.38, -2376.19, 5570.93, 8821.99, -10493.41, 0.00, 0.00, 0.00
122, 24773.13, 18298.17, 5438.96, -6346.33, -2438.98, 5585.12, 8820.87, -10479.28, 0.00, 0.00, 0.00
123, 24778.76, 18306.17, 5444.28, -6319.58, -2658.96, 5613.73, 8836.54, -10454.58, 0.00, 0.00, 0.00
124, 24778.58, 18299.69, 5451.70, -6324.58, -2630.98, 5598.64, 8832.94, -10463.25, 0.00, 0.00, 0.00
125, 24772.97, 18297.41, 5446.76, -6350.38, -2404.96, 5569.29, 8818.75, -10488.33, 0.06, 0.96, 0.21
126, 24764.05, 18294.14, 5427.25, -6356.21, -2412.69, 5574.46, 8809.63, -10495.02, 0.00, 0.00, 0.00
127, 24757.75, 18288.73, 5419.83, -6338.37, -2644.70, 5601.03, 8817.07, -10475.46, 0.00, 0.00, 0.00
128, 24772.17, 18302.61, 5442.29, -6323.84, -2663.90, 5606.89, 8832.43, -10463.12, 0.00, 0.00, 0.00
129, 24770.38, 18301.23, 5444.50, -6345.48, -2440.77, 5577.16, 8820.13, -10491.95, 0.00, 0.00, 0.00
130, 24766.38, 18299.82, 5432.26, -6352.46, -2391.23, 5573.25, 8811.26, -10502.35, 0.00, 0.00, 0.00
131, 24766.29, 18298.43, 5427.63, -6328.49, -2605.16, 5601.48, 8823.22, -10481.58, 0.00, 0.00, 0.00
132, 24772.55, 18301.41, 5441.82, -6310.93, -2683.73, 5608.01, 8835.55, -10457.13, 0.00, 0.00, 0.00
133, 24773.96, 18306.70, 5448.22, -6328.96, -2467.30, 5584.96, 8828.18, -10473.60, 0.00, 0.00, 0.00
134, 24766.34, 18305.61, 5438.16, -6347.40, -2368.55, 5570.46, 8811.73, -10499.08, 0.00, 0.00, 0.00
135, 24763.52, 18304.20, 5431.32, -6334.53, -2569.47, 5593.28, 8814.70, -10483.46, 0.06, 0.97, 0.22
136, 24761.24, 18300.80, 5438.72, -6322.70, -2708.79, 5599.02, 8825.32, -10465.89, 0.00, 0.00, 0.00
137, 24761.22, 18306.37, 5452.64, -6335.69, -2531.76, 5576.07, 8825.12, -10482.45, 0.00, 0.00, 0.00
138, 24766.92, 18316.72, 5459.55, -6344.01, -2364.23, 5569.72, 8825.09, -10493.14, 0.00, 0.00, 0.00
139, 24761.46, 18317.77, 5453.89, -6331.06, -2514.35, 5590.60, 8828.29, -10481.13, 0.00, 0.00, 0.00
140, 24759.79, 18318.17, 5462.19, -6313.05, -2697.27, 5601.55, 8835.33, -10467.72, 0.00, 0.00, 0.00
141, 24768.15, 18328.56, 5479.78, -6319.33, -2568.15, 5583.94, 8836.76, -10476.96, 0.00, 0.00, 0.00
142, 24773.02, 18338.20, 5485.48, -6334.06, -2363.18, 5573.47, 8833.32, -10489.74, 0.00, 0.00, 0.00
143, 24766.09, 18339.38, 5473.74, -6332.56, -2475.03, 5589.95, 8826.30, -10484.44, 0.00, 0.00, 0.00
144, 24774.18, 18347.47, 5484.96, -6307.35, -2684.74, 5617.46, 8843.31, -10458.81, 0.00, 0.00, 0.00
145, 24777.76, 18346.60, 5500.88, -6316.45, -2605.63, 5598.31, 8846.55, -10470.65, 0.06, 0.97, 0.22
146, 24775.30, 18352.77, 5503.63, -6339.83, -2384.22, 5577.05, 8835.22, -10485.81, 0.00, 0.00, 0.00
147, 24770.78, 18353.55, 5494.51, -6339.56, -2434.82, 5590.91, 8833.72, -10479.75, 0.00, 0.00, 0.00
148, 24775.10, 18349.84, 5501.46, -6318.17, -2656.91, 5615.05, 8849.21, -10455.43, 0.00, 0.00, 0.00
149, 24779.61, 18354.54, 5521.80, -6314.01, -2633.24, 5606.96, 8859.69, -10453.78, 0.00, 0.00, 0.00
150, 24774.45, 18356.12, 5518.94, -6344.03, -2396.29, 5579.17, 8844.07, -10486.32, 0.00, 0.00, 0.00
151, 24772.33, 18358.43, 5504.41, -6353.48, -2396.69, 5581.92, 8830.12, -10491.89, 0.00, 0.00, 0.00
152, 24782.70, 18368.13, 5513.91, -6321.92, -2631.52, 5619.16, 8846.48, -10448.52, 0.00, 0.00, 0.00
153, 24779.01, 18361.24, 5515.36, -6325.92, -2678.63, 5607.05, 8844.16, -10459.10, 0.00, 0.00, 0.00
154, 24790.99, 18378.21, 5528.66, -6337.10, -2446.53, 5588.00, 8845.61, -10470.94, 0.00, 0.00, 0.00
155, 24793.13, 18379.91, 5518.02, -6345.15, -2380.17, 5587.35, 8836.49, -10479.19, 0.07, 0.96, 0.22
156, 24797.38, 18379.39, 5511.72, -6325.14, -2593.36, 5613.06, 8842.19, -10459.16, 0.00, 0.00, 0.00
157, 24808.89, 18384.06, 5524.77, -6312.78, -2688.09, 5615.90, 8849.99, -10448.84, 0.00, 0.00, 0.00
158, 24808.22, 18380.60, 5525.22, -6341.44, -2497.52, 5576.34, 8828.67, -10481.45, 0.00, 0.00, 0.00
159, 24820.31, 18394.68, 5526.42, -6344.90, -2366.02, 5579.84, 8827.17, -10486.12, 0.00, 0.00, 0.00
160, 24821.68, 18394.17, 5516.05, -6329.10, -2549.08, 5607.63, 8832.58, -10469.49, 0.00, 0.00, 0.00
161, 24827.06, 18392.60, 5523.79, -6313.72, -2694.48, 5616.41, 8845.05, -10444.86, 0.00, 0.00, 0.00
162, 24832.29, 18395.57, 5532.97, -6328.09, -2525.95, 5593.10, 8842.48, -10460.82, 0.00, 0.00, 0.00
163, 24829.81, 18393.09, 5519.72, -6350.73, -2359.16, 5575.26, 8827.22, -10481.94, 0.00, 0.00, 0.00
164, 24824.70, 18385.67, 5501.93, -6344.72, -2501.88, 5597.41, 8825.83, -10474.34, 0.00, 0.00, 0.00
165, 24833.21, 18391.15, 5510.11, -6321.59, -2682.50, 5617.35, 8844.65, -10454.96, 0.08, 0.96, 0.21
166, 24839.02, 18396.89, 5521.42, -6330.24, -2561.02, 5595.49, 8845.81, -10465.29, 0.00, 0.00, 0.00
167, 24835.16, 18390.48, 5513.19, -6353.57, -2356.88, 5575.11, 8828.85, -10478.25, 0.00, 0.00, 0.00
168, 24829.28, 18384.94, 5495.02, -6352.43, -2449.17, 5583.76, 8824.09, -10470.45, 0.00, 0.00, 0.00
169, 24833.95, 18383.35, 5500.29, -6331.29, -2672.31, 5602.17, 8834.17, -10454.85, 0.00, 0.00, 0.00
170, 24839.78, 18383.62, 5517.26, -6331.58, -2605.41, 5597.52, 8841.81, -10455.90, 0.00, 0.00, 0.00
171, 24830.82, 18380.08, 5507.60, -6364.19, -2385.42, 5568.80, 8822.88, -10482.63, 0.00, 0.00, 0.00
172, 24830.73, 18383.37, 5497.97, -6363.52, -2426.59, 5577.65, 8822.77, -10479.86, 0.00, 0.00, 0.00
173, 24840.07, 18389.74, 5504.56, -6334.13, -2642.76, 5610.31, 8842.44, -10450.58, 0.00, 0.00, 0.00
174, 24841.41, 18384.85, 5511.76, -6337.14, -2637.44, 5597.35, 8848.12, -10450.78, 0.00, 0.00, 0.00
175, 24842.06, 18385.90, 5515.47, -6359.05, -2409.07, 5572.87, 8839.42, -10473.56, 0.08, 0.96, 0.22
176, 24837.55, 18387.28, 5506.64, -6361.24, -2394.92, 5577.14, 8830.73, -10478.25, 0.00, 0.00, 0.00
177, 24836.19, 18384.33, 5501.05, -6339.94, -2614.08, 5605.62, 8841.28, -10454.11, 0.00, 0.00, 0.00
178, 24844.03, 18388.40, 5512.54, -6328.40, -2658.18, 5607.02, 8855.16, -10444.10, 0.00, 0.00, 0.00
179, 24837.12, 18382.10, 5509.44, -6354.65, -2446.22, 5574.55, 8840.65, -10474.59, 0.00, 0.00, 0.00
180, 24833.30, 18382.54, 5497.03, -6363.83, -2370.56, 5573.61, 8832.72, -10485.58, 0.00, 0.00, 0.00
181, 24834.15, 18380.87, 5491.49, -6343.13, -2575.59, 5599.78, 8839.76, -10459.10, 0.00, 0.00, 0.00
182, 24833.44, 18378.03, 5497.17, -6332.85, -2676.17, 5602.15, 8845.57, -10450.27, 0.00, 0.00, 0.00
183, 24838.44, 18385.81, 5509.08, -6343.38, -2477.87, 5585.01, 8843.22, -10462.78, 0.00, 0.00, 0.00
184, 24839.85, 18392.02, 5506.40, -6354.85, -2358.47, 5578.95, 8830.91, -10477.18, 0.00, 0.00, 0.00
185, 24835.31, 18389.14, 5495.94, -6341.97, -2540.30, 5604.39, 8835.22, -10468.48, 0.07, 0.96, 0.22
186, 24843.76, 18392.82, 5508.65, -6319.89, -2689.34, 5620.52, 8854.42, -10443.67, 0.00, 0.00, 0.00
187, 24845.93, 18393.56, 5518.51, -6332.00, -2531.00, 5598.31, 8851.27, -10448.08, 0.00, 0.00, 0.00
188, 24837.17, 18389.03, 5505.35, -6355.56, -2356.12, 5578.86, 8833.23, -10478.18, 0.00, 0.00, 0.00
189, 24822.48, 18376.98, 5481.83, -6353.84, -2500.18, 5589.08, 8821.21, -10475.12, 0.00, 0.00, 0.00
190, 24841.19, 18393.05, 5500.83, -6317.43, -2678.66, 5621.33, 8849.97, -10437.95, 0.00, 0.00, 0.00
191, 24846.82, 18393.47, 5510.64, -6326.06, -2570.99, 5602.46, 8848.36, -10453.89, 0.00, 0.00, 0.00
192, 24840.57, 18390.39, 5501.99, -6350.22, -2367.88, 5584.25, 8832.58, -10474.97, 0.00, 0.00, 0.00
193, 24832.70, 18389.07, 5485.19, -6348.48, -2455.88, 5598.91, 8828.78, -10471.61, 0.00, 0.00, 0.00
194, 24828.85, 18381.81, 5483.98, -6332.52, -2672.73, 5619.07, 8840.41, -10449.40, 0.07, 0.96, 0.22
195, 24841.50, 18390.75, 5506.11, -6327.71, -2604.87, 5617.51, 8857.35, -10439.02, 0.00, 0.00, 0.00
196, 24829.75, 18379.59, 5496.58, -6360.23, -2383.32, 5585.34, 8838.13, -10472.75, 0.00, 0.00, 0.00
197, 24818.30, 18366.49, 5479.62, -6365.96, -2413.12, 5587.62, 8828.60, -10476.31, 0.00, 0.00, 0.00
198, 24826.19, 18368.02, 5483.33, -6338.55, -2637.55, 5616.01, 8843.31, -10451.50, 0.00, 0.00, 0.00
199, 24832.47, 18365.94, 5499.07, -6336.70, -2644.19, 5608.92, 8846.66, -10450.27, 0.00, 0.00, 0.00
200, 24830.91, 18366.07, 5502.42, -6357.64, -2416.04, 5587.02, 8836.63, -10469.56, 0.00, 0.00, 0.00
201, 24818.39, 18353.64, 5478.50, -6373.87, -2395.84, 5582.10, 8818.97, -10487.68, 0.00, 0.00, 0.00
202, 24822.46, 18352.23, 5478.81, -6346.15, -2612.27, 5617.60, 8834.46, -10451.83, 0.00, 0.00, 0.00
203, 24825.14, 18348.44, 5486.79, -6337.77, -2676.06, 5618.27, 8842.37, -10439.25, 0.00, 0.00, 0.00
204, 24826.82, 18347.94, 5491.42, -6357.22, -2460.32, 5589.55, 8833.16, -10464.84, 0.07, 0.96, 0.21
205, 24817.23, 18343.21, 5478.28, -6369.60, -2360.32, 5582.59, 8824.00, -10481.34, 0.00, 0.00, 0.00
206, 24817.16, 18341.60, 5476.13, -6346.11, -2551.74, 5615.16, 8836.16, -10457.08, 0.00, 0.00, 0.00
207, 24818.53, 18339.56, 5488.16, -6335.02, -2683.91, 5617.86, 8839.87, -10441.97, 0.00, 0.00, 0.00
208, 24815.58, 18338.02, 5499.11, -6351.92, -2500.33, 5592.94, 8834.06, -10468.64, 0.00, 0.00, 0.00
209, 24809.38, 18329.03, 5488.00, -6372.62, -2360.30, 5579.35, 8819.01, -10489.27, 0.00, 0.00, 0.00
210, 24810.32, 18328.01, 5479.11, -6355.96, -2526.89, 5604.07, 8824.38, -10466.61, 0.00, 0.00, 0.00
211, 24821.88, 18337.04, 5490.82, -6327.13, -2683.22, 5626.07, 8846.15, -10442.91, 0.00, 0.00, 0.00
212, 24823.98, 18337.93, 5498.17, -6342.35, -2536.30, 5600.61, 8839.13, -10461.17, 0.00, 0.00, 0.00
213, 24819.73, 18338.44, 5490.95, -6362.74, -2354.58, 5581.25, 8825.34, -10477.00, 0.00, 0.00, 0.00
214, 24814.84, 18332.70, 5475.42, -6356.86, -2481.85, 5596.70, 8825.27, -10469.45, 0.07, 0.96, 0.20
215, 24816.38, 18329.75, 5476.42, -6343.07, -2685.58, 5610.15, 8834.21, -10452.82, 0.00, 0.00, 0.00
216, 24811.42, 18323.31, 5482.50, -6358.87, -2593.74, 5586.39, 8829.68, -10469.87, 0.00, 0.00, 0.00
217, 24816.65, 18330.20, 5489.74, -6375.63, -2376.24, 5570.21, 8823.44, -10487.86, 0.00, 0.00, 0.00
218, 24816.76, 18333.41, 5482.50, -6370.83, -2444.65, 5588.96, 8826.66, -10480.22, 0.00, 0.00, 0.00
219, 24816.31, 18332.74, 5483.58, -6351.36, -2661.62, 5615.09, 8841.68, -10446.96, 0.00, 0.00, 0.00
220, 24821.01, 18330.75, 5496.47, -6348.43, -2617.66, 5608.54, 8846.91, -10441.42, 0.00, 0.00, 0.00
221, 24810.95, 18320.34, 5487.22, -6377.00, -2399.62, 5577.68, 8824.89, -10480.96, 0.00, 0.00, 0.00
222, 24810.64, 18324.03, 5478.14, -6373.98, -2407.86, 5591.74, 8824.54, -10477.60, 0.00, 0.00, 0.00
223, 24815.98, 18330.84, 5480.67, -6344.68, -2628.65, 5624.32, 8840.25, -10443.05, 0.00, 0.00, 0.00
224, 24827.15, 18339.47, 5499.91, -6331.29, -2642.00, 5624.28, 8857.39, -10431.69, 0.07, 0.97, 0.21
225, 24821.70, 18333.35, 5497.05, -6358.91, -2424.65, 5586.17, 8838.86, -10465.38, 0.00, 0.00, 0.00
226, 24817.59, 18327.56, 5483.35, -6369.93, -2379.68, 5581.88, 8827.06, -10478.39, 0.00, 0.00, 0.00
227, 24818.24, 18324.50, 5477.65, -6352.37, -2591.66, 5606.06, 8832.31, -10467.34, 0.00, 0.00, 0.00
228, 24820.81, 18323.56, 5491.40, -6343.02, -2673.74, 5608.50, 8841.14, -10455.81, 0.00, 0.00, 0.00
229, 24819.42, 18322.19, 5495.47, -6363.97, -2473.49, 5582.30, 8830.62, -10476.20, 0.00, 0.00, 0.00
230, 24815.53, 18321.57, 5482.17, -6375.97, -2376.97, 5576.31, 8819.53, -10488.15, 0.00, 0.00, 0.00
231, 24819.29, 18329.50, 5477.92, -6351.20, -2565.44, 5610.65, 8834.21, -10459.48, 0.00, 0.00, 0.00
232, 24823.91, 18332.65, 5488.38, -6333.68, -2684.24, 5614.85, 8846.24, -10449.80, 0.00, 0.00, 0.00
233, 24816.92, 18319.24, 5490.06, -6355.43, -2509.77, 5582.75, 8832.85, -10476.75, 0.00, 0.00, 0.00
234, 24815.58, 18320.63, 5485.30, -6367.92, -2360.88, 5575.04, 8820.07, -10494.97, 0.07, 0.97, 0.20
235, 24812.25, 18320.00, 5474.34, -6352.99, -2530.64, 5597.70, 8818.79, -10472.06, 0.00, 0.00, 0.00
236, 24818.62, 18320.94, 5486.30, -6328.56, -2689.99, 5617.04, 8840.83, -10451.72, 0.00, 0.00, 0.00
237, 24818.66, 18321.12, 5494.60, -6339.76, -2550.83, 5596.72, 8840.09, -10470.32, 0.00, 0.00, 0.00
238, 24818.21, 18324.03, 5488.40, -6359.99, -2364.08, 5577.79, 8826.08, -10489.54, 0.00, 0.00, 0.00
239, 24824.38, 18328.36, 5482.32, -6348.41, -2473.06, 5601.06, 8831.22, -10466.58, 0.00, 0.00, 0.00
240, 24823.60, 18322.28, 5482.75, -6333.61, -2674.32, 5618.07, 8842.30, -10451.52, 0.00, 0.00, 0.00
241, 24822.35, 18321.19, 5488.94, -6344.18, -2590.92, 5597.52, 8838.62, -10471.43, 0.00, 0.00, 0.00
242, 24824.47, 18328.09, 5485.05, -6365.58, -2382.18, 5575.08, 8820.96, -10496.96, 0.00, 0.00, 0.00
243, 24810.62, 18316.00, 5465.60, -6368.82, -2443.58, 5585.46, 8812.47, -10481.49, 0.00, 0.00, 0.00
244, 24810.35, 18314.48, 5468.06, -6342.62, -2648.73, 5617.44, 8841.05, -10446.91, 0.08, 0.97, 0.21
245, 24816.61, 18321.39, 5489.03, -6336.76, -2623.98, 5609.37, 8850.82, -10448.19, 0.00, 0.00, 0.00
246, 24809.68, 18317.23, 5487.44, -6361.17, -2406.66, 5581.54, 8831.64, -10479.97, 0.00, 0.00, 0.00
247, 24800.49, 18310.77, 5470.23, -6367.10, -2416.07, 5585.25, 8819.55, -10488.60, 0.00, 0.00, 0.00
248, 24797.09, 18303.22, 5463.10, -6348.61, -2651.74, 5605.17, 8824.98, -10467.97, 0.00, 0.00, 0.00
249, 24808.42, 18307.89, 5481.83, -6336.03, -2664.55, 5606.96, 8848.36, -10451.94, 0.00, 0.00, 0.00
250, 24805.50, 18305.70, 5483.96, -6356.93, -2433.79, 5590.93, 8840.09, -10473.71, 0.00, 0.00, 0.00
251, 24796.09, 18300.78, 5467.04, -6368.32, -2386.52, 5591.15, 8825.27, -10483.33, 0.00, 0.00, 0.00
252, 24800.89, 18304.65, 5468.24, -6340.47, -2596.51, 5622.94, 8838.06, -10453.40, 0.00, 0.00, 0.00
253, 24802.97, 18302.70, 5478.66, -6329.99, -2683.80, 5621.20, 8845.23, -10442.31, 0.00, 0.00, 0.00
254, 24803.42, 18304.76, 5484.67, -6348.86, -2478.85, 5592.94, 8835.60, -10469.27, 0.08, 0.97, 0.21
255, 24791.93, 18297.49, 5466.92, -6367.12, -2375.54, 5576.76, 8816.96, -10490.10, 0.00, 0.00, 0.00
0, 24782.72, 18289.11, 5450.79, -6356.55, -2576.73, 5591.94, 8810.01, -10484.17, 0.00, 0.00, 0.00
1, 24783.05, 18283.35, 5453.74, -6345.59, -2716.23, 5595.60, 8816.11, -10473.25, 0.00, 0.00, 0.00
2, 24801.14, 18299.39, 5478.93, -6343.54, -2519.24, 5588.85, 8833.83, -10475.97, 0.00, 0.00, 0.00
3, 24801.25, 18304.65, 5472.78, -6355.23, -2350.64, 5579.29, 8827.37, -10484.82, 0.00, 0.00, 0.00
4, 24793.54, 18298.61, 5454.52, -6346.73, -2509.94, 5599.45, 8822.46, -10465.96, 0.00, 0.00, 0.00
5, 24790.12, 18295.30, 5455.64, -6333.28, -2686.63, 5611.58, 8834.55, -10457.02, 0.00, 0.00, 0.00
6, 24792.89, 18289.56, 5466.66, -6344.23, -2555.50, 5591.09, 8834.93, -10470.79, 0.00, 0.00, 0.00
7, 24791.44, 18283.53, 5464.96, -6366.40, -2357.26, 5570.93, 8825.32, -10491.51, 0.00, 0.00, 0.00
8, 24785.42, 18280.17, 5451.95, -6363.97, -2460.75, 5590.26, 8823.04, -10481.20, 0.07, 0.96, 0.21
9, 24780.62, 18270.72, 5451.88, -6349.95, -2671.41, 5609.80, 8832.72, -10459.41, 0.00, 0.00, 0.00
10, 24781.47, 18273.73, 5462.48, -6350.60, -2587.68, 5600.90, 8836.67, -10462.87, 0.00, 0.00, 0.00
11, 24781.47, 18277.56, 5456.93, -6369.38, -2361.28, 5579.29, 8825.14, -10486.86, 0.00, 0.00, 0.00
12, 24775.61, 18272.75, 5445.73, -6369.49, -2428.87, 5585.66, 8812.20, -10489.00, 0.00, 0.00, 0.00
13, 24783.41, 18275.99, 5454.63, -6337.52, -2652.59, 5615.67, 8830.10, -10457.93, 0.00, 0.00, 0.00
14, 24786.61, 18273.69, 5461.38, -6335.42, -2638.00, 5604.21, 8831.31, -10463.34, 0.00, 0.00, 0.00
15, 24788.69, 18278.43, 5467.64, -6353.39, -2406.63, 5584.96, 8822.81, -10483.93, 0.00, 0.00, 0.00
16, 24782.94, 18279.99, 5451.28, -6364.88, -2404.02, 5583.11, 8812.04, -10490.90, 0.00, 0.00, 0.00
17, 24781.38, 18272.75, 5447.83, -6345.28, -2630.76, 5607.23, 8822.77, -10468.75, 0.00, 0.00, 0.00
18, 24796.20, 18279.99, 5473.32, -6325.12, -2660.39, 5619.65, 8841.08, -10451.83, 0.07, 0.96, 0.21
19, 24791.01, 18276.71, 5471.06, -6351.74, -2445.44, 5584.96, 8824.11, -10490.68, 0.00, 0.00, 0.00
20, 24783.52, 18276.64, 5454.74, -6364.82, -2380.06, 5575.78, 8808.78, -10501.16, 0.00, 0.00, 0.00
21, 24780.93, 18273.24, 5445.11, -6345.41, -2592.74, 5596.63, 8810.21, -10470.09, 0.00, 0.00, 0.00
22, 24784.75, 18275.19, 5456.49, -6331.85, -2694.39, 5606.24, 8820.42, -10458.87, 0.00, 0.00, 0.00
23, 24792.20, 18288.96, 5475.55, -6339.80, -2492.89, 5592.76, 8823.17, -10472.66, 0.00, 0.00, 0.00
24, 24789.92, 18291.79, 5473.25, -6351.54, -2362.53, 5586.44, 8815.73, -10485.11, 0.00, 0.00, 0.00
25, 24787.77, 18297.79, 5462.07, -6338.46, -2553.64, 5603.43, 8815.19, -10477.69, 0.00, 0.00, 0.00
26, 24791.17, 18300.00, 5471.35, -6325.83, -2702.15, 5605.86, 8824.83, -10461.42, 0.00, 0.00, 0.00
27, 24797.54, 18298.01, 5485.21, -6334.44, -2527.78, 5591.31, 8828.51, -10466.25, 0.07, 0.96, 0.22
28, 24792.98, 18299.57, 5473.18, -6352.92, -2352.48, 5579.96, 8815.95, -10486.92, 0.00, 0.00, 0.00
29, 24786.45, 18297.09, 5459.64, -6347.63, -2497.87, 5594.53, 8815.55, -10479.24, 0.00, 0.00, 0.00
30, 24785.76, 18300.56, 5464.69, -6333.72, -2696.76, 5606.82, 8826.21, -10465.56, 0.00, 0.00, 0.00
31, 24804.60, 18325.05, 5488.65, -6332.00, -2566.63, 5604.59, 8839.91, -10460.33, 0.00, 0.00, 0.00
32, 24801.96, 18330.40, 5487.82, -6356.21, -2361.93, 5587.51, 8826.68, -10476.64, 0.00, 0.00, 0.00
33, 24799.24, 18338.78, 5475.82, -6354.06, -2457.15, 5599.89, 8820.76, -10478.05, 0.00, 0.00, 0.00
34, 24802.28, 18349.48, 5477.07, -6334.15, -2668.35, 5615.67, 8835.35, -10463.83, 0.00, 0.00, 0.00
35, 24808.89, 18359.74, 5489.25, -6339.56, -2605.10, 5599.89, 8832.25, -10460.62, 0.00, 0.00, 0.00
36, 24805.05, 18361.31, 5483.98, -6370.45, -2385.87, 5577.36, 8818.84, -10479.57, 0.00, 0.00, 0.00
37, 24810.93, 18371.37, 5478.93, -6367.18, -2414.97, 5598.31, 8825.21, -10469.74, 0.07, 0.96, 0.21
38, 24814.12, 18377.09, 5477.72, -6345.01, -2636.25, 5624.77, 8836.36, -10446.11, 0.00, 0.00, 0.00
39, 24818.66, 18383.53, 5484.63, -6343.92, -2637.71, 5612.61, 8835.96, -10452.14, 0.00, 0.00, 0.00
40, 24816.00, 18384.40, 5482.46, -6373.40, -2414.59, 5580.85, 8820.36, -10477.22, 0.00, 0.00, 0.00
41, 24810.01, 18385.49, 5467.10, -6383.75, -2399.64, 5577.25, 8805.76, -10484.29, 0.00, 0.00, 0.00
42, 24816.11, 18389.74, 5466.39, -6359.21, -2619.60, 5602.15, 8816.09, -10465.85, 0.00, 0.00, 0.00
43, 24823.36, 18396.22, 5481.61, -6348.28, -2659.43, 5600.99, 8831.40, -10456.95, 0.00, 0.00, 0.00
44, 24834.51, 18413.08, 5497.84, -6358.20, -2435.33, 5586.73, 8832.29, -10465.85, 0.00, 0.00, 0.00
45, 24828.67, 18408.81, 5486.86, -6366.25, -2366.13, 5590.31, 8823.22, -10471.68, 0.00, 0.00, 0.00
46, 24823.82, 18404.69, 5471.30, -6353.17, -2581.43, 5610.09, 8826.68, -10459.81, 0.00, 0.00, 0.00
47, 24827.91, 18406.95, 5477.59, -6340.99, -2688.60, 5610.76, 8836.00, -10447.29, 0.07, 0.97, 0.22
48, 24837.32, 18415.87, 5494.30, -6347.18, -2486.23, 5596.07, 8837.10, -10458.00, 0.00, 0.00, 0.00
49, 24830.40, 18411.44, 5479.71, -6371.07, -2358.04, 5577.61, 8814.19, -10491.39, 0.00, 0.00, 0.00
50, 24826.78, 18409.48, 5467.84, -6355.23, -2534.42, 5599.47, 8818.01, -10463.50, 0.00, 0.00, 0.00
51, 24829.01, 18409.21, 5471.68, -6338.93, -2690.66, 5611.61, 8829.18, -10443.27, 0.00, 0.00, 0.00
52, 24834.24, 18415.22, 5483.46, -6349.57, -2531.65, 5596.56, 8830.57, -10453.08, 0.00, 0.00, 0.00
53, 24819.94, 18402.39, 5462.52, -6381.62, -2365.13, 5568.71, 8804.46, -10487.08, 0.00, 0.00, 0.00
54, 24827.51, 18408.56, 5458.18, -6365.04, -2492.04, 5593.61, 8814.83, -10469.47, 0.00, 0.00, 0.00
55, 24829.12, 18410.04, 5462.23, -6348.83, -2686.08, 5607.90, 8824.33, -10452.61, 0.00, 0.00, 0.00
56, 24825.03, 18401.88, 5466.45, -6366.09, -2585.02, 5580.74, 8817.83, -10470.27, 0.00, 0.00, 0.00
57, 24831.78, 18401.83, 5472.47, -6377.71, -2370.45, 5569.14, 8812.60, -10484.02, 0.07, 0.96, 0.22
58, 24828.43, 18396.85, 5461.29, -6367.79, -2448.45, 5589.79, 8815.10, -10467.97, 0.00, 0.00, 0.00
59, 24823.69, 18387.04, 5457.71, -6349.46, -2665.91, 5609.82, 8823.26, -10447.90, 0.00, 0.00, 0.00
60, 24826.62, 18385.31, 5473.00, -6350.29, -2604.47, 5597.06, 8832.05, -10449.93, 0.00, 0.00, 0.00
61, 24827.78, 18384.31, 5474.21, -6378.32, -2373.24, 5574.77, 8823.73, -10471.26, 0.00, 0.00, 0.00
62, 24818.10, 18376.33, 5454.90, -6388.73, -2414.37, 5578.57, 8809.00, -10480.38, 0.00, 0.00, 0.00
63, 24812.76, 18362.00, 5452.69, -6350.82, -2649.49, 5599.74, 8816.47, -10459.59, 0.00, 0.00, 0.00
64, 24818.01, 18364.15, 5466.70, -6347.22, -2646.98, 5597.75, 8828.07, -10451.38, 0.00, 0.00, 0.00
65, 24815.60, 18361.94, 5466.43, -6368.08, -2419.15, 5577.01, 8817.92, -10476.40, 0.00, 0.00, 0.00
66, 24804.04, 18340.16, 5448.44, -6383.48, -2387.68, 5571.73, 8805.22, -10490.50, 0.00, 0.00, 0.00
67, 24811.20, 18333.12, 5450.99, -6357.60, -2599.42, 5608.77, 8824.98, -10447.25, 0.07, 0.96, 0.22
68, 24809.07, 18323.54, 5456.40, -6355.18, -2664.06, 5604.41, 8828.54, -10447.12, 0.00, 0.00, 0.00
69, 24803.71, 18318.46, 5457.11, -6378.92, -2452.50, 5570.37, 8817.18, -10473.63, 0.00, 0.00, 0.00
70, 24793.85, 18313.46, 5441.04, -6393.05, -2366.76, 5564.78, 8803.19, -10483.62, 0.00, 0.00, 0.00
71, 24792.84, 18310.08, 5435.41, -6367.74, -2565.44, 5600.48, 8814.54, -10458.78, 0.00, 0.00, 0.00
72, 24797.56, 18307.69, 5443.05, -6352.88, -2683.08, 5609.75, 8827.82, -10445.57, 0.00, 0.00, 0.00
73, 24798.66, 18312.16, 5449.33, -6366.76, -2501.16, 5586.95, 8820.29, -10463.79, 0.00, 0.00, 0.00
74, 24791.95, 18303.87, 5438.69, -6384.28, -2362.78, 5573.32, 8804.67, -10481.60, 0.00, 0.00, 0.00
75, 24788.35, 18296.60, 5426.69, -6371.14, -2531.13, 5597.12, 8808.55, -10465.67, 0.00, 0.00, 0.00
76, 24794.74, 18296.20, 5437.33, -6348.52, -2691.28, 5616.88, 8826.23, -10441.17, 0.00, 0.00, 0.00
77, 24784.33, 18286.83, 5437.53, -6370.56, -2553.08, 5585.25, 8813.94, -10466.47, 0.07, 0.96, 0.22
78, 24788.38, 18297.07, 5440.82, -6381.04, -2363.56, 5575.73, 8805.36, -10478.23, 0.00, 0.00, 0.00
79, 24784.04, 18294.66, 5434.11, -6369.87, -2485.33, 5595.69, 8810.59, -10462.11, 0.00, 0.00, 0.00
80, 24782.74, 18288.55, 5438.65, -6349.35, -2680.73, 5614.33, 8824.22, -10439.65, 0.00, 0.00, 0.00
81, 24783.57, 18291.91, 5447.54, -6354.85, -2573.85, 5595.74, 8821.58, -10451.97, 0.00, 0.00, 0.00
82, 24789.11, 18302.57, 5455.05, -6366.60, -2364.23, 5584.85, 8813.61, -10469.65, 0.00, 0.00, 0.00
83, 24776.62, 18293.36, 5438.47, -6370.00, -2452.72, 5593.05, 8804.15, -10474.41, 0.00, 0.00, 0.00
84, 24785.94, 18299.04, 5448.57, -6338.87, -2664.62, 5618.56, 8826.68, -10449.13, 0.00, 0.00, 0.00
85, 24790.77, 18294.37, 5458.39, -6341.86, -2622.93, 5603.25, 8826.23, -10453.37, 0.00, 0.00, 0.00
86, 24786.88, 18296.11, 5455.68, -6365.58, -2401.14, 5580.11, 8809.76, -10466.52, 0.00, 0.00, 0.00
87, 24785.83, 18296.36, 5448.19, -6366.04, -2407.33, 5594.51, 8808.91, -10455.54, 0.07, 0.97, 0.22
88, 24791.46, 18293.79, 5450.88, -6343.34, -2628.61, 5621.22, 8824.94, -10437.08, 0.00, 0.00, 0.00
89, 24795.84, 18289.83, 5458.39, -6347.69, -2650.98, 5610.15, 8827.26, -10442.11, 0.00, 0.00, 0.00
90, 24804.20, 18294.41, 5453.74, -6381.36, -2438.78, 5572.38, 8803.77, -10481.96, 0.00, 0.00, 0.00
91, 24801.81, 18304.60, 5442.40, -6385.40, -2394.70, 5576.31, 8799.90, -10486.54, 0.00, 0.00, 0.00
92, 24784.44, 18303.33, 5445.62, -6348.43, -2599.11, 5619.88, 8825.00, -10450.02, 0.00, 0.00, 0.00
93, 24775.14, 18292.15, 5454.03, -6333.84, -2677.76, 5626.90, 8835.93, -10436.41, 0.00, 0.00, 0.00
94, 24772.95, 18291.97, 5455.79, -6358.38, -2469.44, 5596.30, 8825.32, -10461.29, 0.00, 0.00, 0.00
95, 24772.75, 18299.06, 5454.00, -6364.23, -2353.08, 5604.10, 8826.06, -10459.57, 0.00, 0.00, 0.00
96, 24766.71, 18287.17, 5447.03, -6347.18, -2545.57, 5632.17, 8831.96, -10437.93, 0.00, 0.00, 0.00
97, 24769.26, 18286.83, 5454.92, -6335.76, -2677.96, 5635.90, 8841.46, -10426.66, 0.07, 0.96, 0.21
98, 24769.67, 18285.43, 5460.64, -6357.77, -2506.35, 5603.69, 8832.76, -10449.62, 0.00, 0.00, 0.00
99, 24763.81, 18283.68, 5447.30, -6379.23, -2357.93, 5586.75, 8816.67, -10471.37, 0.00, 0.00, 0.00
100, 24762.67, 18282.70, 5436.32, -6363.43, -2519.13, 5610.69, 8820.87, -10453.89, 0.00, 0.00, 0.00
101, 24771.12, 18284.87, 5452.08, -6338.55, -2685.47, 5628.26, 8840.88, -10429.37, 0.00, 0.00, 0.00
102, 24774.94, 18289.07, 5467.04, -6345.12, -2546.67, 5608.14, 8840.96, -10442.04, 0.00, 0.00, 0.00
103, 24766.11, 18281.94, 5456.19, -6366.38, -2348.59, 5590.04, 8826.03, -10467.43, 0.00, 0.00, 0.00
104, 24768.95, 18284.84, 5452.82, -6350.00, -2461.80, 5615.27, 8831.78, -10450.87, 0.00, 0.00, 0.00
105, 24766.25, 18277.27, 5452.55, -6332.85, -2675.19, 5633.76, 8838.30, -10436.25, 0.00, 0.00, 0.00
106, 24762.45, 18271.30, 5451.30, -6347.29, -2597.03, 5610.94, 8827.84, -10453.35, 0.07, 0.96, 0.21
107, 24768.64, 18276.60, 5455.90, -6361.35, -2373.78, 5596.38, 8821.43, -10456.39, 0.00, 0.00, 0.00
108, 24767.41, 18275.21, 5444.26, -6359.29, -2433.30, 5609.30, 8815.64, -10458.36, 0.00, 0.00, 0.00
109, 24772.91, 18283.66, 5442.29, -6338.93, -2654.20, 5629.35, 8829.12, -10440.88, 0.00, 0.00, 0.00
110, 24783.95, 18291.17, 5461.36, -6334.13, -2619.18, 5625.04, 8843.94, -10434.46, 0.00, 0.00, 0.00
111, 24774.43, 18282.18, 5454.67, -6364.55, -2394.97, 5595.45, 8824.87, -10453.75, 0.00, 0.00, 0.00
112, 24768.77, 18279.41, 5435.25, -6373.24, -2400.80, 5593.55, 8810.23, -10464.73, 0.00, 0.00, 0.00
113, 24766.29, 18273.00, 5425.30, -6356.08, -2630.29, 5616.79, 8814.88, -10447.18, 0.00, 0.00, 0.00
114, 24778.56, 18282.09, 5439.32, -6343.67, -2653.40, 5619.70, 8827.98, -10438.20, 0.00, 0.00, 0.00
115, 24773.78, 18281.09, 5438.63, -6370.98, -2433.68, 5588.03, 8812.31, -10469.74, 0.00, 0.00, 0.00
116, 24769.82, 18282.47, 5427.65, -6379.01, -2373.02, 5588.56, 8802.12, -10476.06, 0.07, 0.96, 0.21
117, 24768.59, 18272.64, 5419.81, -6362.18, -2587.66, 5611.65, 8812.13, -10454.29, 0.00, 0.00, 0.00
118, 24770.38, 18265.58, 5428.70, -6353.93, -2674.65, 5610.82, 8825.03, -10448.23, 0.00, 0.00, 0.00
119, 24762.27, 18259.38, 5426.13, -6382.36, -2475.72, 5575.55, 8808.06, -10482.90, 0.00, 0.00, 0.00
120, 24756.77, 18259.54, 5413.41, -6395.44, -2366.96, 5566.23, 8799.64, -10492.29, 0.00, 0.00, 0.00
121, 24766.00, 18269.67, 5413.10, -6364.35, -2527.13, 5610.91, 8821.85, -10461.26, 0.00, 0.00, 0.00
122, 24767.88, 18267.52, 5424.34, -6348.39, -2673.80, 5627.36, 8831.71, -10438.20, 0.00, 0.00, 0.00
123, 24764.08, 18263.54, 5434.80, -6364.88, -2513.79, 5607.52, 8826.46, -10442.42, 0.00, 0.00, 0.00
124, 24757.22, 18260.46, 5426.96, -6381.22, -2357.13, 5589.63, 8815.06, -10464.77, 0.00, 0.00, 0.00
125, 24749.37, 18254.60, 5410.69, -6370.92, -2509.85, 5610.11, 8815.55, -10452.88, 0.00, 0.00, 0.00
126, 24753.35, 18250.78, 5418.98, -6348.01, -2689.38, 5626.52, 8829.68, -10429.77, 0.07, 0.96, 0.21
127, 24756.03, 18246.98, 5432.30, -6349.19, -2562.94, 5611.47, 8831.38, -10434.69, 0.00, 0.00, 0.00
128, 24743.09, 18239.18, 5421.57, -6377.22, -2372.08, 5585.92, 8810.34, -10463.72, 0.00, 0.00, 0.00
129, 24748.19, 18248.37, 5418.55, -6360.79, -2468.01, 5608.92, 8816.98, -10451.70, 0.00, 0.00, 0.00
130, 24758.29, 18259.86, 5429.44, -6329.54, -2667.10, 5636.51, 8836.00, -10422.64, 0.00, 0.00, 0.00
131, 24758.04, 18256.99, 5439.25, -6337.86, -2594.48, 5617.69, 8838.97, -10425.10, 0.00, 0.00, 0.00
132, 24748.28, 18246.13, 5433.24, -6363.56, -2377.26, 5596.43, 8824.54, -10452.12, 0.00, 0.00, 0.00
133, 24740.99, 18240.95, 5417.41, -6366.63, -2434.31, 5604.12, 8816.56, -10454.67, 0.00, 0.00, 0.00
134, 24742.15, 18242.46, 5416.90, -6343.34, -2652.75, 5633.89, 8830.46, -10429.57, 0.00, 0.00, 0.00
135, 24748.32, 18245.62, 5430.04, -6341.30, -2633.59, 5627.57, 8838.64, -10429.41, 0.00, 0.00, 0.00
136, 24745.26, 18241.57, 5425.82, -6367.88, -2404.67, 5602.26, 8823.22, -10457.80, 0.07, 0.96, 0.21
137, 24734.91, 18233.41, 5404.63, -6378.18, -2397.83, 5601.55, 8810.23, -10463.72, 0.00, 0.00, 0.00
138, 24739.04, 18236.23, 5401.37, -6357.22, -2622.60, 5630.54, 8821.09, -10434.00, 0.00, 0.00, 0.00
139, 24751.83, 18246.31, 5418.55, -6345.93, -2654.81, 5633.04, 8837.23, -10424.16, 0.00, 0.00, 0.00
140, 24745.48, 18235.76, 5415.78, -6375.95, -2445.68, 5594.15, 8817.74, -10458.20, 0.00, 0.00, 0.00
141, 24748.92, 18241.10, 5415.45, -6380.69, -2378.56, 5596.41, 8815.06, -10467.34, 0.00, 0.00, 0.00
142, 24747.09, 18243.47, 5407.87, -6363.14, -2591.37, 5619.09, 8821.36, -10451.09, 0.00, 0.00, 0.00
143, 24755.90, 18247.11, 5421.17, -6344.27, -2687.42, 5623.16, 8834.86, -10425.01, 0.00, 0.00, 0.00
144, 24753.24, 18245.10, 5425.10, -6363.52, -2487.88, 5593.97, 8822.64, -10449.91, 0.00, 0.00, 0.00
145, 24749.48, 18244.03, 5412.39, -6378.96, -2367.85, 5585.83, 8811.08, -10468.19, 0.00, 0.00, 0.00
146, 24749.28, 18240.28, 5406.17, -6358.87, -2549.13, 5612.08, 8816.65, -10452.21, 0.07, 0.96, 0.22
147, 24752.41, 18240.88, 5412.85, -6341.79, -2701.25, 5616.39, 8826.55, -10439.76, 0.00, 0.00, 0.00
148, 24749.13, 18238.20, 5417.17, -6358.67, -2545.93, 5590.69, 8820.56, -10456.12, 0.00, 0.00, 0.00
149, 24736.94, 18228.52, 5402.04, -6386.90, -2385.04, 5568.45, 8799.97, -10485.58, 0.00, 0.00, 0.00
150, 24739.98, 18230.26, 5396.60, -6373.04, -2518.68, 5588.90, 8806.01, -10462.54, 0.00, 0.00, 0.00
151, 24754.64, 18239.94, 5415.07, -6336.59, -2683.35, 5629.24, 8836.78, -10425.19, 0.00, 0.00, 0.00
152, 24749.15, 18234.11, 5418.82, -6349.82, -2574.05, 5606.29, 8828.22, -10446.67, 0.00, 0.00, 0.00
153, 24746.87, 18230.71, 5411.33, -6370.85, -2375.23, 5584.09, 8809.27, -10471.21, 0.00, 0.00, 0.00
154, 24747.13, 18234.37, 5404.27, -6355.00, -2462.51, 5604.92, 8812.38, -10463.50, 0.00, 0.00, 0.00
155, 24747.40, 18235.36, 5407.98, -6327.94, -2676.67, 5627.70, 8824.09, -10433.77, 0.00, 0.00, 0.00
156, 24751.36, 18237.59, 5423.16, -6325.48, -2611.42, 5614.42, 8826.95, -10432.39, 0.06, 0.96, 0.22
157, 24739.22, 18227.71, 5414.91, -6350.89, -2394.88, 5588.03, 8809.36, -10466.96, 0.00, 0.00, 0.00
158, 24734.95, 18223.55, 5404.12, -6346.98, -2431.87, 5603.07, 8809.49, -10461.82, 0.00, 0.00, 0.00
159, 24742.20, 18228.07, 5408.70, -6320.89, -2648.26, 5632.71, 8827.31, -10432.65, 0.00, 0.00, 0.00
160, 24745.21, 18232.68, 5421.37, -6319.49, -2632.43, 5623.43, 8835.76, -10432.48, 0.00, 0.00, 0.00
161, 24742.96, 18233.08, 5423.96, -6346.22, -2412.67, 5596.34, 8824.11, -10456.19, 0.00, 0.00, 0.00
162, 24734.93, 18227.76, 5406.35, -6357.89, -2401.61, 5596.90, 8811.48, -10464.95, 0.00, 0.00, 0.00
163, 24731.96, 18223.18, 5393.27, -6348.72, -2625.41, 5618.27, 8819.19, -10444.12, 0.00, 0.00, 0.00
164, 24739.63, 18229.17, 5406.24, -6340.99, -2674.81, 5617.46, 8829.74, -10436.70, 0.00, 0.00, 0.00
165, 24740.34, 18233.41, 5410.95, -6358.65, -2450.02, 5594.22, 8821.99, -10457.84, 0.00, 0.00, 0.00
166, 24731.98, 18228.47, 5395.00, -6373.04, -2379.30, 5588.52, 8806.45, -10471.28, 0.06, 0.96, 0.22
167, 24734.48, 18233.01, 5391.31, -6347.67, -2583.10, 5620.79, 8816.60, -10446.47, 0.00, 0.00, 0.00
168, 24741.01, 18235.58, 5400.14, -6333.12, -2692.58, 5624.24, 8828.22, -10426.46, 0.00, 0.00, 0.00
169, 24740.79, 18237.30, 5403.18, -6353.57, -2501.41, 5596.68, 8819.91, -10450.42, 0.00, 0.00, 0.00
170, 24733.88, 18233.81, 5393.90, -6373.40, -2373.29, 5587.35, 8805.98, -10468.37, 0.00, 0.00, 0.00
171, 24733.90, 18234.57, 5392.78, -6354.18, -2545.89, 5615.52, 8814.77, -10452.14, 0.00, 0.00, 0.00
172, 24732.61, 18228.79, 5399.82, -6338.31, -2700.96, 5624.37, 8828.51, -10435.47, 0.00, 0.00, 0.00
173, 24731.91, 18229.21, 5407.36, -6353.80, -2546.65, 5599.87, 8826.28, -10433.37, 0.00, 0.00, 0.00
174, 24732.18, 18235.71, 5397.41, -6376.44, -2368.14, 5580.69, 8816.87, -10456.75, 0.00, 0.00, 0.00
175, 24721.03, 18226.51, 5377.20, -6369.78, -2507.46, 5594.28, 8813.65, -10450.29, 0.00, 0.00, 0.00
176, 24721.45, 18223.51, 5383.89, -6345.19, -2700.58, 5613.60, 8831.31, -10423.51, 0.06, 0.96, 0.21
177, 24722.68, 18222.68, 5394.68, -6355.85, -2582.12, 5602.00, 8838.73, -10428.76, 0.00, 0.00, 0.00
178, 24731.29, 18237.93, 5400.16, -6359.79, -2359.74, 5603.02, 8836.81, -10437.01, 0.00, 0.00, 0.00
179, 24713.74, 18229.01, 5378.19, -6372.57, -2449.64, 5604.57, 8821.18, -10445.17, 0.00, 0.00, 0.00
180, 24711.78, 18221.01, 5378.95, -6356.66, -2672.08, 5605.50, 8831.29, -10423.42, 0.00, 0.00, 0.00
181, 24717.99, 18224.63, 5395.26, -6336.74, -2616.74, 5643.01, 8836.09, -10425.19, 0.00, 0.00, 0.00
182, 24715.20, 18228.25, 5391.35, -6357.75, -2394.43, 5590.48, 8815.17, -10460.82, 0.00, 0.00, 0.00
183, 24711.06, 18220.58, 5376.94, -6361.84, -2421.95, 5589.75, 8807.62, -10465.13, 0.00, 0.00, 0.00
184, 24708.98, 18221.39, 5384.42, -6327.91, -2636.59, 5627.34, 8833.32, -10425.46, 0.00, 0.00, 0.00
185, 24711.15, 18220.65, 5395.06, -6326.30, -2648.03, 5616.66, 8834.66, -10427.02, 0.00, 0.00, 0.00
186, 24700.82, 18214.26, 5396.81, -6353.64, -2424.34, 5586.71, 8821.54, -10452.57, 0.07, 0.96, 0.22
187, 24684.88, 18208.56, 5385.67, -6365.49, -2385.65, 5584.56, 8821.34, -10448.75, 0.00, 0.00, 0.00
188, 24681.15, 18198.66, 5377.92, -6340.18, -2609.70, 5653.78, 8822.93, -10434.15, 0.00, 0.00, 0.00
189, 24679.57, 18189.76, 5379.06, -6349.04, -2684.65, 5619.03, 8822.79, -10436.74, 0.00, 0.00, 0.00
190, 24639.06, 18152.97, 5389.54, -6370.45, -2469.00, 5575.62, 8815.30, -10455.83, 0.00, 0.00, 0.00
191, 24606.28, 18117.81, 5370.39, -6416.58, -2384.46, 5547.73, 8796.55, -10478.52, 0.00, 0.00, 0.00
192, 24595.50, 18117.07, 5358.76, -6386.85, -2593.72, 5555.55, 8806.18, -10448.95, 0.00, 0.00, 0.00
193, 24578.51, 18117.09, 5377.78, -6361.40, -2698.01, 5563.21, 8838.82, -10424.52, 0.00, 0.00, 0.00
194, 24560.05, 18104.60, 5394.62, -6371.48, -2503.55, 5534.96, 8837.16, -10440.77, 0.00, 0.00, 0.00
195, 24524.65, 18078.76, 5373.11, -6403.37, -2371.27, 5489.79, 8817.32, -10460.08, 0.07, 0.96, 0.22
196, 24506.16, 18050.60, 5364.06, -6385.02, -2535.38, 5493.12, 8827.17, -10437.86, 0.00, 0.00, 0.00
197, 24502.96, 18038.55, 5368.40, -6368.39, -2705.72, 5477.59, 8831.24, -10433.44, 0.00, 0.00, 0.00
198, 24490.58, 18024.92, 5374.16, -6388.46, -2557.73, 5437.35, 8828.07, -10449.80, 0.00, 0.00, 0.00
199, 24481.22, 18022.99, 5362.74, -6414.64, -2373.67, 5401.28, 8816.58, -10469.15, 0.00, 0.00, 0.00
200, 24480.66, 18016.40, 5353.65, -6407.48, -2487.48, 5421.21, 8822.66, -10450.36, 0.00, 0.00, 0.00
201, 24472.99, 18002.83, 5369.47, -6371.27, -2682.97, 5452.55, 8842.13, -10432.09, 0.00, 0.00, 0.00
202, 24462.71, 17993.15, 5382.23, -6385.69, -2579.15, 5388.49, 8842.28, -10446.33, 0.00, 0.00, 0.00
203, 24464.12, 17988.10, 5369.09, -6423.24, -2378.83, 5335.72, 8814.19, -10474.74, 0.00, 0.00, 0.00
204, 24454.57, 17979.70, 5350.11, -6430.35, -2459.14, 5320.12, 8806.34, -10478.52, 0.00, 0.00, 0.00
205, 24453.95, 17981.91, 5351.79, -6403.62, -2674.14, 5326.00, 8820.53, -10457.00, 0.07, 0.96, 0.22
206, 24449.95, 17972.79, 5363.44, -6401.34, -2639.20, 5298.17, 8821.70, -10464.48, 0.00, 0.00, 0.00
207, 24454.10, 17976.48, 5369.02, -6422.13, -2398.83, 5254.67, 8818.17, -10484.00, 0.00, 0.00, 0.00
208, 24443.42, 17970.76, 5345.04, -6436.77, -2417.88, 5232.27, 8803.41, -10483.91, 0.00, 0.00, 0.00
209, 24455.20, 17975.09, 5345.73, -6412.20, -2640.95, 5246.96, 8819.51, -10451.16, 0.00, 0.00, 0.00
210, 24475.47, 17988.06, 5361.42, -6400.06, -2663.59, 5225.99, 8822.52, -10454.29, 0.00, 0.00, 0.00
211, 24479.41, 17993.18, 5357.80, -6415.87, -2442.08, 5180.31, 8800.46, -10490.88, 0.00, 0.00, 0.00
212, 24466.42, 17991.01, 5349.53, -6426.10, -2397.49, 5165.87, 8794.61, -10494.19, 0.00, 0.00, 0.00
213, 24463.31, 17988.95, 5350.20, -6397.02, -2621.05, 5219.04, 8803.59, -10471.61, 0.00, 0.00, 0.00
214, 24484.50, 17997.98, 5371.21, -6375.57, -2683.91, 5200.42, 8822.57, -10462.20, 0.00, 0.00, 0.00
215, 24502.43, 18019.44, 5389.70, -6384.19, -2464.97, 5172.48, 8827.69, -10463.34, 0.06, 0.96, 0.22
216, 24513.67, 18037.86, 5368.96, -6399.44, -2365.17, 5152.52, 8813.00, -10478.36, 0.00, 0.00, 0.00
217, 24513.29, 18036.02, 5354.00, -6393.29, -2568.60, 5151.83, 8812.26, -10473.45, 0.00, 0.00, 0.00
218, 24529.47, 18048.47, 5390.30, -6360.05, -2686.21, 5166.90, 8836.29, -10439.09, 0.00, 0.00, 0.00
219, 24540.40, 18059.79, 5391.20, -6376.17, -2507.24, 5131.94, 8830.24, -10456.44, 0.00, 0.00, 0.00
220, 24564.97, 18090.76, 5392.07, -6381.56, -2348.45, 5112.47, 8824.65, -10468.19, 0.00, 0.00, 0.00
221, 24564.70, 18092.71, 5368.58, -6378.23, -2508.49, 5116.69, 8823.89, -10460.10, 0.00, 0.00, 0.00
222, 24567.43, 18085.71, 5367.35, -6359.16, -2672.71, 5124.43, 8836.52, -10441.19, 0.00, 0.00, 0.00
223, 24567.27, 18085.06, 5368.40, -6376.15, -2545.22, 5073.60, 8826.84, -10458.85, 0.00, 0.00, 0.00
224, 24588.39, 18110.34, 5378.52, -6387.19, -2349.79, 5090.19, 8819.01, -10479.82, 0.00, 0.00, 0.00
225, 24580.62, 18106.90, 5354.83, -6387.03, -2472.17, 5085.63, 8810.32, -10481.63, 0.06, 0.96, 0.21
226, 24587.37, 18109.23, 5361.56, -6364.61, -2674.88, 5090.56, 8832.11, -10436.68, 0.00, 0.00, 0.00
227, 24610.86, 18125.92, 5377.85, -6367.36, -2587.71, 5062.58, 8834.97, -10454.56, 0.00, 0.00, 0.00
228, 24614.92, 18131.64, 5366.56, -6387.39, -2379.28, 5039.54, 8817.85, -10481.45, 0.00, 0.00, 0.00
229, 24613.16, 18129.01, 5344.88, -6391.50, -2439.34, 5049.24, 8810.39, -10477.20, 0.00, 0.00, 0.00
230, 24630.39, 18140.81, 5358.56, -6364.30, -2653.53, 5068.21, 8829.92, -10449.82, 0.00, 0.00, 0.00
231, 24643.67, 18155.43, 5373.87, -6356.70, -2625.64, 5051.90, 8834.35, -10452.88, 0.00, 0.00, 0.00
232, 24643.91, 18157.95, 5369.96, -6385.63, -2393.29, 5019.93, 8822.64, -10479.79, 0.00, 0.00, 0.00
233, 24650.69, 18171.14, 5349.53, -6379.34, -2390.47, 5026.21, 8821.67, -10479.30, 0.00, 0.00, 0.00
234, 24659.07, 18174.67, 5349.58, -6363.47, -2624.01, 5048.45, 8825.65, -10464.68, 0.00, 0.00, 0.00
235, 24673.71, 18192.64, 5383.77, -6359.56, -2660.39, 5045.53, 8832.76, -10462.76, 0.07, 0.95, 0.21
236, 24685.73, 18207.95, 5385.61, -6363.70, -2423.31, 5012.51, 8826.01, -10484.89, 0.00, 0.00, 0.00
237, 24689.89, 18213.16, 5379.84, -6364.97, -2359.14, 5042.75, 8812.47, -10497.27, 0.00, 0.00, 0.00
238, 24691.99, 18212.96, 5367.75, -6344.74, -2583.17, 5052.92, 8813.45, -10470.61, 0.00, 0.00, 0.00
239, 24708.20, 18222.01, 5371.41, -6335.04, -2673.65, 5048.70, 8820.85, -10461.44, 0.00, 0.00, 0.00
240, 24720.98, 18239.60, 5386.64, -6344.81, -2460.68, 5031.04, 8820.40, -10473.80, 0.00, 0.00, 0.00
241, 24716.54, 18238.96, 5375.28, -6362.47, -2358.80, 5014.81, 8800.19, -10498.32, 0.00, 0.00, 0.00
242, 24721.61, 18248.01, 5362.32, -6350.26, -2544.46, 5025.97, 8807.39, -10483.53, 0.00, 0.00, 0.00
243, 24717.29, 18237.26, 5355.48, -6348.03, -2705.12, 5022.73, 8802.18, -10477.49, 0.00, 0.00, 0.00
244, 24735.18, 18255.09, 5377.11, -6351.25, -2528.38, 5011.13, 8806.45, -10485.11, 0.00, 0.00, 0.00
245, 24736.85, 18258.80, 5372.60, -6369.67, -2362.09, 4997.31, 8793.62, -10506.06, 0.08, 0.96, 0.20
246, 24734.51, 18256.23, 5355.39, -6363.50, -2519.29, 5011.26, 8788.84, -10501.27, 0.00, 0.00, 0.00
247, 24736.09, 18255.50, 5358.85, -6341.82, -2707.49, 5027.76, 8797.27, -10487.24, 0.00, 0.00, 0.00
248, 24745.50, 18261.60, 5375.10, -6346.20, -2570.65, 5019.22, 8803.12, -10493.56, 0.00, 0.00, 0.00
249, 24746.35, 18266.81, 5370.88, -6367.25, -2365.98, 5001.16, 8790.96, -10503.31, 0.00, 0.00, 0.00
250, 24748.28, 18269.04, 5364.62, -6354.15, -2465.08, 5031.98, 8800.98, -10477.29, 0.00, 0.00, 0.00
251, 24758.78, 18278.45, 5376.69, -6321.77, -2669.38, 5062.49, 8828.67, -10450.09, 0.00, 0.00, 0.00
252, 24757.35, 18279.48, 5388.02, -6329.10, -2589.38, 5046.71, 8833.48, -10457.62, 0.00, 0.00, 0.00
253, 24759.23, 18282.92, 5385.23, -6349.28, -2371.23, 5024.54, 8815.17, -10483.33, 0.00, 0.00, 0.00
254, 24756.79, 18288.96, 5371.75, -6345.53, -2417.30, 5038.66, 8812.13, -10482.99, 0.00, 0.00, 0.00
255, 24761.11, 18292.80, 5379.37, -6314.73, -2634.58, 5073.02, 8828.47, -10455.68, 0.07, 0.97, 0.20
0, 24766.74, 18291.06, 5389.03, -6318.21, -2627.16, 5053.46, 8820.58, -10469.87, 0.00, 0.00, 0.00
1, 24773.02, 18300.18, 5399.04, -6336.25, -2387.37, 5026.19, 8814.88, -10490.37, 0.00, 0.00, 0.00
2, 24762.00, 18289.81, 5381.90, -6340.54, -2372.03, 5039.25, 8806.77, -10489.99, 0.00, 0.00, 0.00
3, 24763.21, 18290.14, 5378.92, -6316.87, -2606.35, 5070.96, 8812.64, -10466.14, 0.00, 0.00, 0.00
4, 24778.72, 18307.55, 5403.65, -6297.09, -2631.22, 5083.70, 8839.53, -10447.21, 0.00, 0.00, 0.00
5, 24779.99, 18309.90, 5410.04, -6312.89, -2403.95, 5064.50, 8828.07, -10464.24, 0.00, 0.00, 0.00
6, 24765.66, 18293.00, 5387.24, -6335.87, -2344.47, 5055.18, 8806.72, -10474.74, 0.00, 0.00, 0.00
7, 24767.19, 18293.58, 5379.42, -6311.04, -2561.89, 5085.94, 8814.88, -10455.56, 0.00, 0.00, 0.00
8, 24767.61, 18293.07, 5384.07, -6302.63, -2671.91, 5093.45, 8821.05, -10454.78, 0.00, 0.00, 0.00
9, 24769.15, 18296.87, 5394.39, -6313.12, -2471.77, 5076.75, 8813.76, -10467.63, 0.08, 0.97, 0.20
10, 24763.47, 18297.72, 5387.15, -6329.79, -2345.39, 5068.57, 8798.43, -10477.47, 0.00, 0.00, 0.00
11, 24768.73, 18308.38, 5380.60, -6304.80, -2526.66, 5105.41, 8806.27, -10456.30, 0.00, 0.00, 0.00
12, 24776.04, 18317.10, 5391.44, -6279.34, -2676.40, 5129.05, 8820.60, -10440.05, 0.00, 0.00, 0.00
13, 24777.18, 18319.78, 5399.29, -6293.22, -2516.61, 5118.19, 8813.83, -10459.97, 0.00, 0.00, 0.00
14, 24774.54, 18318.13, 5392.00, -6309.99, -2344.61, 5116.07, 8805.02, -10474.32, 0.00, 0.00, 0.00
15, 24772.13, 18315.49, 5378.48, -6296.02, -2475.39, 5153.73, 8812.98, -10455.83, 0.00, 0.00, 0.00
16, 24766.58, 18308.29, 5372.49, -6282.38, -2669.96, 5180.58, 8821.85, -10441.04, 0.00, 0.00, 0.00
17, 24771.23, 18312.63, 5387.62, -6287.66, -2556.37, 5186.12, 8827.46, -10445.73, 0.00, 0.00, 0.00
18, 24752.90, 18294.79, 5369.47, -6320.60, -2366.67, 5171.99, 8801.13, -10478.86, 0.00, 0.00, 0.00
19, 24751.79, 18297.99, 5363.23, -6309.27, -2454.74, 5209.57, 8805.60, -10462.11, 0.08, 0.96, 0.20
20, 24758.00, 18300.51, 5368.64, -6282.02, -2668.24, 5254.96, 8819.62, -10429.37, 0.00, 0.00, 0.00
21, 24771.57, 18311.58, 5394.21, -6272.37, -2589.16, 5264.93, 8834.55, -10426.93, 0.00, 0.00, 0.00
22, 24765.93, 18306.10, 5391.82, -6299.77, -2362.62, 5257.20, 8818.01, -10454.74, 0.00, 0.00, 0.00
23, 24761.24, 18308.58, 5383.48, -6292.95, -2397.20, 5281.92, 8814.86, -10451.59, 0.00, 0.00, 0.00
24, 24762.96, 18306.10, 5385.05, -6266.56, -2628.65, 5323.54, 8827.06, -10426.55, 0.00, 0.00, 0.00
25, 24757.86, 18296.22, 5388.92, -6275.56, -2631.29, 5324.05, 8823.49, -10440.32, 0.00, 0.00, 0.00
26, 24757.26, 18300.42, 5398.91, -6293.38, -2389.76, 5326.11, 8820.76, -10451.52, 0.00, 0.00, 0.00
27, 24754.24, 18303.08, 5395.91, -6293.20, -2366.47, 5345.60, 8816.78, -10448.52, 0.00, 0.00, 0.00
28, 24754.71, 18305.81, 5401.12, -6270.38, -2586.52, 5383.89, 8832.20, -10427.51, 0.08, 0.96, 0.22
29, 24752.61, 18307.20, 5415.18, -6266.74, -2643.16, 5392.34, 8837.21, -10422.62, 0.00, 0.00, 0.00
30, 24750.24, 18314.95, 5424.14, -6292.51, -2424.36, 5368.29, 8825.83, -10453.44, 0.00, 0.00, 0.00
31, 24742.08, 18316.61, 5417.08, -6308.38, -2343.74, 5371.19, 8812.35, -10470.03, 0.00, 0.00, 0.00
32, 24745.17, 18324.83, 5419.81, -6283.08, -2549.46, 5419.27, 8826.19, -10443.16, 0.00, 0.00, 0.00
33, 24752.68, 18335.20, 5434.02, -6269.84, -2668.11, 5428.97, 8830.68, -10435.72, 0.00, 0.00, 0.00
34, 24750.33, 18342.27, 5443.50, -6290.90, -2482.88, 5405.39, 8813.65, -10454.33, 0.00, 0.00, 0.00
35, 24746.60, 18348.32, 5439.10, -6306.59, -2351.29, 5400.72, 8800.11, -10471.57, 0.00, 0.00, 0.00
36, 24756.54, 18365.20, 5445.51, -6281.26, -2517.63, 5441.91, 8820.42, -10438.96, 0.00, 0.00, 0.00
37, 24761.53, 18370.67, 5453.51, -6263.32, -2674.41, 5460.55, 8836.23, -10420.65, 0.00, 0.00, 0.00
38, 24761.48, 18373.56, 5462.12, -6280.53, -2531.94, 5437.73, 8826.55, -10444.32, 0.08, 0.96, 0.22
39, 24762.58, 18385.40, 5463.86, -6298.36, -2340.09, 5435.41, 8822.43, -10460.62, 0.00, 0.00, 0.00
40, 24759.21, 18393.12, 5455.35, -6286.63, -2476.64, 5462.12, 8822.86, -10448.68, 0.00, 0.00, 0.00
41, 24771.90, 18404.94, 5472.80, -6257.35, -2667.77, 5491.85, 8846.66, -10416.83, 0.00, 0.00, 0.00
42, 24775.34, 18413.84, 5489.03, -6266.29, -2556.46, 5483.17, 8850.84, -10420.07, 0.00, 0.00, 0.00
43, 24771.05, 18418.20, 5483.51, -6297.81, -2348.50, 5456.49, 8827.98, -10452.26, 0.00, 0.00, 0.00
44, 24772.48, 18421.50, 5478.26, -6295.88, -2429.70, 5471.37, 8822.26, -10443.90, 0.00, 0.00, 0.00
45, 24777.56, 18427.80, 5483.24, -6274.34, -2647.83, 5503.07, 8835.33, -10423.42, 0.00, 0.00, 0.00
46, 24784.02, 18440.93, 5489.72, -6283.08, -2600.76, 5487.44, 8830.79, -10430.75, 0.00, 0.00, 0.00
47, 24795.66, 18453.02, 5491.78, -6304.76, -2370.31, 5463.01, 8817.88, -10456.50, 0.00, 0.00, 0.00
48, 24781.65, 18438.04, 5480.38, -6307.39, -2390.05, 5473.07, 8813.74, -10455.63, 0.07, 0.95, 0.21
49, 24764.08, 18410.82, 5482.15, -6286.09, -2618.66, 5504.90, 8829.59, -10428.00, 0.00, 0.00, 0.00
50, 24783.68, 18417.88, 5498.19, -6282.96, -2621.75, 5499.80, 8837.01, -10421.25, 0.00, 0.00, 0.00
51, 24790.86, 18419.63, 5489.54, -6315.53, -2401.52, 5467.71, 8813.81, -10456.73, 0.00, 0.00, 0.00
52, 24790.10, 18419.42, 5469.05, -6327.26, -2375.14, 5464.40, 8796.64, -10471.99, 0.00, 0.00, 0.00
53, 24795.71, 18416.45, 5464.02, -6307.30, -2599.08, 5492.63, 8806.50, -10453.15, 0.00, 0.00, 0.00
54, 24795.93, 18407.89, 5468.98, -6304.44, -2679.91, 5488.49, 8805.87, -10451.14, 0.00, 0.00, 0.00
55, 24802.68, 18411.20, 5479.35, -6325.01, -2466.07, 5466.52, 8800.08, -10462.90, 0.00, 0.00, 0.00
56, 24806.41, 18410.26, 5470.83, -6334.31, -2367.32, 5467.84, 8791.70, -10471.72, 0.00, 0.00, 0.00
57, 24811.24, 18409.25, 5463.57, -6315.28, -2573.60, 5492.47, 8793.44, -10457.13, 0.00, 0.00, 0.00
58, 24808.20, 18399.17, 5466.30, -6308.15, -2711.91, 5486.93, 8791.39, -10455.65, 0.08, 0.96, 0.21
59, 24827.45, 18415.78, 5489.34, -6300.73, -2490.77, 5484.13, 8809.69, -10451.34, 0.00, 0.00, 0.00
60, 24825.57, 18416.74, 5476.65, -6317.92, -2344.01, 5473.05, 8800.95, -10467.23, 0.00, 0.00, 0.00
61, 24819.62, 18407.55, 5460.87, -6307.64, -2527.47, 5511.34, 8803.52, -10442.42, 0.00, 0.00, 0.00
62, 24830.26, 18413.54, 5472.13, -6279.48, -2686.66, 5534.29, 8826.23, -10410.64, 0.00, 0.00, 0.00
63, 24826.80, 18408.47, 5471.68, -6298.77, -2560.21, 5501.73, 8810.81, -10436.50, 0.00, 0.00, 0.00
64, 24837.35, 18421.61, 5474.34, -6310.32, -2359.47, 5492.74, 8813.58, -10452.12, 0.00, 0.00, 0.00
65, 24832.99, 18419.92, 5464.42, -6299.10, -2470.63, 5514.42, 8818.54, -10439.14, 0.00, 0.00, 0.00
66, 24817.16, 18395.66, 5447.52, -6298.30, -2686.79, 5522.89, 8814.28, -10411.75, 0.00, 0.00, 0.00
67, 24825.23, 18404.20, 5461.02, -6299.97, -2593.88, 5506.33, 8819.55, -10422.26, 0.00, 0.00, 0.00
68, 24841.71, 18425.23, 5479.35, -6303.57, -2358.78, 5512.14, 8825.94, -10427.25, 0.09, 0.96, 0.22
69, 24840.41, 18428.05, 5469.34, -6293.40, -2417.27, 5527.54, 8826.08, -10422.06, 0.00, 0.00, 0.00
70, 24831.65, 18410.68, 5453.07, -6284.86, -2660.30, 5537.64, 8819.28, -10419.33, 0.00, 0.00, 0.00
71, 24829.32, 18408.63, 5467.59, -6285.91, -2614.75, 5525.04, 8826.41, -10423.74, 0.00, 0.00, 0.00
72, 24821.25, 18406.95, 5463.62, -6315.53, -2382.36, 5488.98, 8812.98, -10449.57, 0.00, 0.00, 0.00
73, 24829.75, 18416.63, 5460.89, -6303.86, -2388.19, 5525.04, 8820.33, -10429.84, 0.00, 0.00, 0.00
74, 24831.85, 18412.41, 5466.95, -6281.58, -2615.98, 5549.80, 8831.91, -10410.10, 0.00, 0.00, 0.00
75, 24821.72, 18389.09, 5461.78, -6298.56, -2646.94, 5523.03, 8824.56, -10423.96, 0.00, 0.00, 0.00
76, 24818.24, 18391.89, 5474.66, -6313.00, -2411.82, 5505.30, 8821.43, -10436.16, 0.00, 0.00, 0.00
77, 24814.53, 18392.98, 5465.38, -6318.99, -2359.41, 5502.24, 8815.17, -10445.44, 0.00, 0.00, 0.00
78, 24815.15, 18392.78, 5459.55, -6302.41, -2583.44, 5526.78, 8822.48, -10429.01, 0.08, 0.96, 0.22
79, 24831.80, 18407.64, 5474.23, -6288.62, -2665.27, 5531.25, 8835.60, -10412.09, 0.00, 0.00, 0.00
80, 24830.75, 18411.53, 5475.44, -6320.45, -2455.16, 5501.17, 8819.73, -10444.97, 0.00, 0.00, 0.00
81, 24807.66, 18389.07, 5448.77, -6353.10, -2362.11, 5475.98, 8792.17, -10477.36, 0.00, 0.00, 0.00
82, 24811.71, 18398.08, 5451.68, -6320.65, -2548.23, 5523.41, 8810.68, -10425.55, 0.00, 0.00, 0.00
83, 24821.16, 18409.28, 5466.88, -6298.16, -2677.45, 5538.02, 8825.45, -10404.09, 0.00, 0.00, 0.00
84, 24816.83, 18407.00, 5460.75, -6326.53, -2510.97, 5511.11, 8803.66, -10436.66, 0.00, 0.00, 0.00
85, 24833.30, 18429.44, 5467.10, -6324.38, -2346.40, 5506.13, 8805.33, -10442.11, 0.00, 0.00, 0.00
86, 24831.47, 18430.11, 5455.19, -6308.56, -2506.32, 5534.98, 8809.29, -10425.39, 0.00, 0.00, 0.00
87, 24833.88, 18425.53, 5457.76, -6293.04, -2675.19, 5553.78, 8829.74, -10402.19, 0.00, 0.00, 0.00
88, 24835.98, 18430.71, 5472.06, -6299.82, -2534.69, 5532.73, 8829.27, -10418.13, 0.08, 0.96, 0.22
89, 24830.08, 18426.64, 5463.19, -6323.62, -2345.73, 5509.55, 8804.15, -10455.27, 0.00, 0.00, 0.00
90, 24822.08, 18415.56, 5446.47, -6318.88, -2460.41, 5529.33, 8802.25, -10442.53, 0.00, 0.00, 0.00
91, 24827.42, 18420.12, 5450.96, -6295.57, -2668.15, 5559.46, 8825.76, -10405.05, 0.00, 0.00, 0.00
92, 24830.62, 18421.44, 5463.77, -6301.78, -2587.80, 5548.44, 8829.92, -10399.42, 0.00, 0.00, 0.00
93, 24823.80, 18412.21, 5455.90, -6329.77, -2364.21, 5522.42, 8810.81, -10432.70, 0.00, 0.00, 0.00
94, 24836.10, 18426.96, 5454.97, -6313.85, -2413.09, 5550.07, 8817.38, -10420.70, 0.00, 0.00, 0.00
95, 24841.13, 18425.53, 5459.03, -6287.99, -2634.09, 5576.38, 8832.92, -10394.59, 0.00, 0.00, 0.00
96, 24829.93, 18413.90, 5455.32, -6298.27, -2620.45, 5548.62, 8825.05, -10414.53, 0.00, 0.00, 0.00
97, 24827.11, 18407.40, 5453.36, -6310.66, -2390.45, 5523.88, 8812.35, -10434.71, 0.00, 0.00, 0.00
98, 24822.82, 18406.15, 5453.89, -6312.31, -2381.38, 5538.56, 8818.01, -10430.91, 0.07, 0.96, 0.22
99, 24822.95, 18405.70, 5442.27, -6299.28, -2614.66, 5549.11, 8811.75, -10425.01, 0.00, 0.00, 0.00
100, 24825.01, 18403.67, 5454.74, -6289.76, -2637.91, 5554.81, 8825.54, -10404.71, 0.00, 0.00, 0.00
101, 24822.62, 18403.44, 5464.51, -6305.96, -2392.69, 5536.10, 8827.84, -10421.88, 0.00, 0.00, 0.00
102, 24820.29, 18398.41, 5451.88, -6322.10, -2338.84, 5534.20, 8814.37, -10425.86, 0.00, 0.00, 0.00
103, 24821.03, 18394.17, 5443.86, -6309.20, -2573.04, 5545.94, 8813.74, -10422.44, 0.00, 0.00, 0.00
104, 24819.06, 18390.21, 5454.43, -6297.42, -2673.72, 5546.88, 8816.82, -10416.85, 0.00, 0.00, 0.00
105, 24821.59, 18388.40, 5461.07, -6316.20, -2460.01, 5533.67, 8809.51, -10436.83, 0.00, 0.00, 0.00
106, 24812.42, 18388.85, 5452.95, -6325.72, -2341.66, 5525.37, 8802.47, -10450.63, 0.00, 0.00, 0.00
107, 24807.33, 18382.37, 5445.42, -6306.37, -2526.13, 5558.88, 8818.90, -10418.75, 0.00, 0.00, 0.00
108, 24814.26, 18382.81, 5455.52, -6293.60, -2669.60, 5574.23, 8838.86, -10396.02, 0.07, 0.97, 0.22
109, 24815.49, 18378.74, 5468.71, -6312.27, -2500.76, 5550.81, 8831.02, -10414.48, 0.00, 0.00, 0.00
110, 24806.79, 18378.45, 5457.27, -6322.46, -2335.47, 5543.52, 8819.19, -10432.36, 0.00, 0.00, 0.00
111, 24807.73, 18381.47, 5444.37, -6296.24, -2487.39, 5573.74, 8824.18, -10406.10, 0.00, 0.00, 0.00
112, 24810.17, 18374.97, 5446.49, -6280.55, -2668.93, 5586.89, 8835.78, -10390.43, 0.00, 0.00, 0.00
113, 24822.01, 18385.47, 5463.93, -6283.50, -2535.05, 5579.17, 8842.89, -10379.84, 0.00, 0.00, 0.00
114, 24823.31, 18390.68, 5464.51, -6299.26, -2329.16, 5566.05, 8838.19, -10393.00, 0.00, 0.00, 0.00
115, 24818.06, 18389.49, 5455.79, -6290.38, -2419.64, 5585.54, 8846.91, -10382.09, 0.00, 0.00, 0.00
116, 24817.54, 18386.37, 5445.44, -6284.95, -2654.54, 5574.77, 8823.19, -10416.40, 0.00, 0.00, 0.00
117, 24815.76, 18386.46, 5451.46, -6288.35, -2591.06, 5565.03, 8826.23, -10420.72, 0.07, 0.96, 0.21
118, 24819.69, 18396.33, 5468.31, -6296.55, -2342.04, 5569.00, 8854.04, -10393.67, 0.00, 0.00, 0.00
119, 24816.72, 18397.34, 5456.37, -6296.35, -2390.76, 5578.68, 8844.52, -10395.66, 0.00, 0.00, 0.00
120, 24818.50, 18393.54, 5453.58, -6272.64, -2620.88, 5604.27, 8849.55, -10366.83, 0.00, 0.00, 0.00
121, 24831.31, 18400.25, 5476.83, -6258.18, -2597.85, 5609.64, 8861.95, -10357.53, 0.00, 0.00, 0.00
122, 24821.37, 18396.40, 5476.56, -6285.51, -2365.64, 5580.29, 8851.40, -10384.87, 0.00, 0.00, 0.00
123, 24804.54, 18384.51, 5452.33, -6310.63, -2366.92, 5566.32, 8821.03, -10415.51, 0.00, 0.00, 0.00
124, 24814.08, 18395.78, 5460.44, -6283.70, -2581.49, 5594.89, 8845.57, -10387.32, 0.00, 0.00, 0.00
125, 24813.50, 18395.44, 5471.75, -6277.76, -2626.75, 5588.58, 8855.87, -10378.50, 0.00, 0.00, 0.00
126, 24810.35, 18391.95, 5473.81, -6304.11, -2412.92, 5560.20, 8837.05, -10406.57, 0.00, 0.00, 0.00
127, 24803.75, 18381.81, 5463.95, -6316.18, -2340.72, 5560.69, 8826.90, -10425.61, 0.08, 0.96, 0.21
128, 24793.25, 18360.48, 5455.14, -6304.29, -2549.02, 5588.29, 8844.36, -10389.63, 0.00, 0.00, 0.00
129, 24795.24, 18358.56, 5460.22, -6292.73, -2659.23, 5583.76, 8841.97, -10383.61, 0.00, 0.00, 0.00
130, 24813.21, 18372.48, 5478.70, -6293.94, -2456.81, 5576.16, 8847.74, -10391.68, 0.00, 0.00, 0.00
131, 24806.12, 18360.57, 5468.11, -6310.48, -2333.77, 5563.19, 8831.15, -10415.44, 0.00, 0.00, 0.00
132, 24800.00, 18345.78, 5451.66, -6301.22, -2523.27, 5576.18, 8824.56, -10404.33, 0.00, 0.00, 0.00
133, 24807.44, 18345.82, 5457.56, -6284.89, -2671.44, 5588.47, 8838.64, -10387.37, 0.00, 0.00, 0.00
134, 24801.96, 18337.77, 5461.60, -6302.63, -2507.31, 5560.38, 8834.17, -10415.33, 0.00, 0.00, 0.00
135, 24802.05, 18341.60, 5452.37, -6317.34, -2335.35, 5549.27, 8819.01, -10437.86, 0.00, 0.00, 0.00
136, 24816.29, 18366.41, 5447.39, -6291.19, -2474.09, 5589.14, 8834.82, -10403.15, 0.00, 0.00, 0.00
137, 24817.14, 18365.29, 5452.55, -6269.28, -2659.54, 5610.98, 8852.14, -10370.81, 0.08, 0.97, 0.21
138, 24811.71, 18347.96, 5457.31, -6288.62, -2550.76, 5582.48, 8841.68, -10389.29, 0.00, 0.00, 0.00
139, 24802.90, 18343.70, 5447.99, -6314.68, -2351.31, 5552.37, 8816.04, -10417.77, 0.00, 0.00, 0.00
140, 24795.66, 18339.90, 5434.18, -6308.51, -2435.13, 5567.84, 8821.83, -10416.49, 0.00, 0.00, 0.00
141, 24803.19, 18346.00, 5441.96, -6275.12, -2647.32, 5608.25, 8843.00, -10376.82, 0.00, 0.00, 0.00
142, 24819.06, 18360.19, 5465.87, -6263.07, -2578.34, 5612.25, 8859.90, -10368.91, 0.00, 0.00, 0.00
143, 24808.67, 18348.28, 5452.95, -6303.73, -2368.10, 5561.76, 8819.37, -10427.51, 0.00, 0.00, 0.00
144, 24792.15, 18338.02, 5436.03, -6309.72, -2396.82, 5568.38, 8819.66, -10424.34, 0.00, 0.00, 0.00
145, 24792.08, 18338.69, 5436.86, -6283.75, -2613.25, 5601.12, 8841.86, -10391.91, 0.00, 0.00, 0.00
146, 24798.01, 18341.48, 5449.67, -6281.42, -2613.03, 5595.40, 8852.88, -10384.53, 0.00, 0.00, 0.00
147, 24794.52, 18329.93, 5448.04, -6312.24, -2382.61, 5570.21, 8844.05, -10407.06, 0.07, 0.99, 0.22
148, 24778.74, 18305.16, 5419.00, -6343.00, -2374.52, 5553.20, 8815.44, -10426.24, 0.00, 0.00, 0.00
149, 24775.97, 18297.54, 5414.11, -6327.47, -2602.86, 5573.41, 8821.63, -10417.99, 0.00, 0.00, 0.00
150, 24784.96, 18304.25, 5428.52, -6314.14, -2653.82, 5577.45, 8834.48, -10406.12, 0.00, 0.00, 0.00
151, 24775.77, 18297.56, 5425.06, -6342.53, -2438.51, 5542.56, 8814.83, -10433.82, 0.00, 0.00, 0.00
152, 24767.81, 18292.42, 5410.91, -6358.53, -2364.81, 5531.97, 8790.34, -10462.36, 0.00, 0.00, 0.00
153, 24767.56, 18295.13, 5408.70, -6334.69, -2559.59, 5565.27, 8811.28, -10439.47, 0.00, 0.00, 0.00
154, 24781.51, 18310.95, 5421.19, -6310.17, -2663.34, 5585.25, 8830.53, -10405.97, 0.00, 0.00, 0.00
155, 24782.50, 18308.18, 5426.53, -6334.51, -2491.03, 5547.57, 8808.89, -10433.10, 0.00, 0.00, 0.00
156, 24775.23, 18308.74, 5411.31, -6348.32, -2362.07, 5538.36, 8788.44, -10453.67, 0.00, 0.00, 0.00
157, 24766.92, 18298.57, 5392.94, -6340.39, -2539.65, 5556.82, 8786.27, -10440.10, 0.07, 0.97, 0.21
158, 24772.39, 18302.68, 5400.63, -6318.82, -2697.94, 5574.84, 8802.45, -10427.47, 0.00, 0.00, 0.00
159, 24785.94, 18319.89, 5414.78, -6319.17, -2540.92, 5560.20, 8801.20, -10439.16, 0.00, 0.00, 0.00
160, 24790.03, 18325.93, 5410.82, -6336.76, -2360.39, 5546.14, 8787.28, -10451.70, 0.00, 0.00, 0.00
161, 24769.98, 18302.30, 5391.60, -6339.00, -2490.10, 5560.89, 8790.23, -10440.83, 0.00, 0.00, 0.00
162, 24769.51, 18295.64, 5400.23, -6314.41, -2677.72, 5582.46, 8812.87, -10412.36, 0.00, 0.00, 0.00
163, 24770.98, 18292.42, 5406.24, -6327.67, -2573.74, 5556.40, 8810.43, -10426.02, 0.00, 0.00, 0.00
164, 24768.32, 18293.34, 5397.30, -6351.49, -2365.62, 5533.98, 8791.14, -10455.56, 0.00, 0.00, 0.00
165, 24778.09, 18308.98, 5396.54, -6326.30, -2442.44, 5571.19, 8796.69, -10436.61, 0.00, 0.00, 0.00
166, 24778.07, 18309.97, 5402.17, -6297.85, -2659.43, 5602.11, 8814.54, -10408.00, 0.00, 0.00, 0.00
167, 24776.48, 18307.17, 5410.89, -6307.08, -2612.72, 5579.69, 8814.61, -10419.47, 0.06, 0.96, 0.22
168, 24773.96, 18309.97, 5409.52, -6332.79, -2382.07, 5553.58, 8802.54, -10441.48, 0.00, 0.00, 0.00
169, 24762.04, 18296.31, 5396.81, -6342.35, -2398.32, 5555.82, 8800.91, -10446.87, 0.00, 0.00, 0.00
170, 24750.53, 18273.24, 5388.20, -6332.61, -2630.13, 5571.87, 8809.49, -10426.06, 0.00, 0.00, 0.00
171, 24757.64, 18278.41, 5398.82, -6331.85, -2644.37, 5558.57, 8807.88, -10439.78, 0.00, 0.00, 0.00
172, 24759.27, 18282.12, 5400.65, -6353.98, -2416.47, 5535.23, 8793.62, -10462.56, 0.00, 0.00, 0.00
173, 24758.11, 18281.69, 5391.62, -6354.20, -2368.70, 5549.02, 8796.66, -10440.81, 0.00, 0.00, 0.00
174, 24766.34, 18288.44, 5389.36, -6327.04, -2589.96, 5574.84, 8806.65, -10427.67, 0.00, 0.00, 0.00
175, 24764.70, 18283.14, 5394.17, -6318.57, -2647.90, 5577.05, 8816.02, -10424.09, 0.00, 0.00, 0.00
176, 24764.66, 18284.64, 5398.59, -6339.25, -2439.69, 5545.51, 8797.24, -10447.47, 0.00, 0.00, 0.00
177, 24760.61, 18283.03, 5389.43, -6347.98, -2356.59, 5540.19, 8784.28, -10458.18, 0.07, 0.97, 0.22
178, 24760.77, 18276.10, 5374.75, -6335.31, -2562.90, 5556.44, 8790.40, -10447.07, 0.00, 0.00, 0.00
179, 24770.85, 18270.83, 5382.01, -6329.77, -2693.18, 5560.29, 8798.43, -10436.72, 0.00, 0.00, 0.00
180, 24751.94, 18239.65, 5385.99, -6353.84, -2510.19, 5538.49, 8783.34, -10459.88, 0.00, 0.00, 0.00
181, 24740.41, 18232.45, 5388.51, -6348.77, -2346.84, 5546.88, 8785.71, -10452.64, 0.00, 0.00, 0.00
182, 24736.23, 18231.45, 5372.76, -6341.12, -2509.03, 5559.84, 8783.70, -10446.58, 0.00, 0.00, 0.00
183, 24751.92, 18238.67, 5371.64, -6337.55, -2695.02, 5550.18, 8779.63, -10449.87, 0.00, 0.00, 0.00
184, 24769.17, 18251.14, 5388.74, -6341.99, -2550.51, 5534.00, 8786.74, -10458.87, 0.00, 0.00, 0.00
185, 24774.40, 18260.93, 5384.45, -6356.68, -2360.50, 5525.10, 8781.08, -10471.81, 0.00, 0.00, 0.00
186, 24770.45, 18261.15, 5372.87, -6342.17, -2477.24, 5547.12, 8779.47, -10458.94, 0.00, 0.00, 0.00
187, 24772.46, 18254.91, 5380.76, -6316.96, -2670.25, 5572.92, 8795.88, -10433.48, 0.07, 0.96, 0.21
188, 24775.66, 18254.94, 5393.07, -6323.35, -2575.99, 5560.02, 8802.30, -10437.93, 0.00, 0.00, 0.00
189, 24762.42, 18242.00, 5382.17, -6357.69, -2366.38, 5525.26, 8783.21, -10471.95, 0.00, 0.00, 0.00
190, 24757.78, 18240.79, 5363.19, -6355.54, -2439.60, 5529.08, 8769.37, -10471.14, 0.00, 0.00, 0.00
191, 24757.71, 18240.83, 5364.66, -6323.02, -2658.00, 5565.23, 8789.13, -10434.51, 0.00, 0.00, 0.00
192, 24763.36, 18242.58, 5376.67, -6320.87, -2620.09, 5556.73, 8795.54, -10438.96, 0.00, 0.00, 0.00
193, 24769.93, 18248.61, 5384.00, -6339.60, -2380.80, 5534.49, 8790.87, -10457.08, 0.00, 0.00, 0.00
194, 24760.81, 18241.17, 5367.91, -6347.31, -2389.85, 5532.91, 8780.28, -10461.89, 0.00, 0.00, 0.00
195, 24765.46, 18243.87, 5367.17, -6320.80, -2619.13, 5567.46, 8794.41, -10434.20, 0.00, 0.00, 0.00
196, 24772.73, 18247.72, 5380.58, -6315.04, -2648.17, 5563.71, 8800.98, -10432.03, 0.07, 0.97, 0.21
197, 24770.61, 18246.91, 5382.97, -6336.79, -2418.70, 5542.56, 8789.80, -10452.39, 0.00, 0.00, 0.00
198, 24764.73, 18242.62, 5366.12, -6352.34, -2361.57, 5538.72, 8779.30, -10463.83, 0.00, 0.00, 0.00
199, 24759.54, 18237.68, 5356.91, -6337.52, -2591.10, 5556.60, 8783.99, -10451.27, 0.00, 0.00, 0.00
200, 24762.45, 18242.33, 5368.67, -6323.13, -2677.05, 5562.70, 8798.92, -10441.66, 0.00, 0.00, 0.00
201, 24765.80, 18249.26, 5377.20, -6333.30, -2461.69, 5553.22, 8801.63, -10435.98, 0.00, 0.00, 0.00
202, 24755.85, 18244.79, 5360.73, -6348.83, -2351.05, 5546.76, 8789.24, -10446.74, 0.00, 0.00, 0.00
203, 24748.99, 18240.12, 5343.12, -6339.47, -2546.31, 5565.87, 8787.21, -10443.23, 0.00, 0.00, 0.00
204, 24753.28, 18242.46, 5351.34, -6325.68, -2686.03, 5571.82, 8793.56, -10436.05, 0.00, 0.00, 0.00
205, 24760.72, 18252.41, 5362.14, -6339.87, -2509.72, 5544.98, 8784.88, -10451.83, 0.00, 0.00, 0.00
206, 24755.21, 18255.16, 5356.13, -6358.62, -2350.33, 5532.59, 8772.90, -10460.15, 0.06, 0.96, 0.21
207, 24751.20, 18253.87, 5351.39, -6339.71, -2501.99, 5560.29, 8783.05, -10444.99, 0.00, 0.00, 0.00
208, 24755.34, 18252.23, 5356.13, -6316.98, -2673.13, 5573.99, 8795.59, -10426.24, 0.00, 0.00, 0.00
209, 24762.45, 18257.62, 5364.82, -6324.90, -2543.20, 5551.15, 8789.55, -10440.75, 0.00, 0.00, 0.00
210, 24765.02, 18263.50, 5372.51, -6338.55, -2355.90, 5539.83, 8779.94, -10460.88, 0.00, 0.00, 0.00
211, 24755.18, 18259.50, 5354.94, -6332.94, -2474.49, 5554.16, 8781.29, -10454.94, 0.00, 0.00, 0.00
212, 24766.60, 18273.62, 5367.08, -6302.45, -2676.40, 5584.31, 8799.84, -10423.45, 0.00, 0.00, 0.00
213, 24766.34, 18272.46, 5373.25, -6309.27, -2596.07, 5564.38, 8793.22, -10437.91, 0.00, 0.00, 0.00
214, 24758.60, 18267.95, 5364.53, -6337.75, -2381.02, 5535.43, 8778.04, -10463.97, 0.00, 0.00, 0.00
215, 24750.96, 18262.45, 5351.79, -6336.81, -2432.14, 5549.69, 8778.16, -10455.21, 0.00, 0.00, 0.00
216, 24753.28, 18267.14, 5355.23, -6307.01, -2651.59, 5584.47, 8799.50, -10422.84, 0.06, 0.96, 0.22
217, 24751.00, 18265.31, 5362.70, -6311.80, -2621.43, 5574.48, 8809.67, -10421.12, 0.00, 0.00, 0.00
218, 24745.71, 18262.00, 5359.12, -6339.71, -2394.12, 5546.34, 8799.12, -10443.99, 0.00, 0.00, 0.00
219, 24744.25, 18266.54, 5346.43, -6341.01, -2392.26, 5559.88, 8793.47, -10439.65, 0.00, 0.00, 0.00
220, 24741.66, 18264.53, 5337.86, -6323.78, -2620.59, 5581.48, 8800.51, -10422.26, 0.00, 0.00, 0.00
221, 24742.84, 18264.19, 5346.98, -6320.00, -2656.77, 5579.44, 8809.98, -10415.42, 0.00, 0.00, 0.00
222, 24742.40, 18266.36, 5349.69, -6340.81, -2435.94, 5552.96, 8798.12, -10440.75, 0.00, 0.00, 0.00
223, 24738.66, 18266.72, 5338.40, -6349.75, -2375.03, 5547.39, 8783.88, -10461.64, 0.00, 0.00, 0.00
224, 24733.52, 18260.79, 5328.63, -6330.28, -2591.80, 5574.37, 8788.82, -10443.27, 0.00, 0.00, 0.00
225, 24741.66, 18266.47, 5345.73, -6309.99, -2671.39, 5580.69, 8804.49, -10424.36, 0.00, 0.00, 0.00
226, 24741.97, 18269.27, 5353.51, -6325.74, -2465.44, 5556.60, 8793.80, -10433.08, 0.06, 0.96, 0.22
227, 24737.99, 18267.19, 5344.86, -6343.69, -2368.26, 5541.00, 8770.13, -10453.55, 0.00, 0.00, 0.00
228, 24734.91, 18260.32, 5340.86, -6325.57, -2551.94, 5569.27, 8780.48, -10441.19, 0.00, 0.00, 0.00
229, 24739.49, 18262.16, 5355.08, -6304.38, -2684.74, 5583.11, 8805.65, -10416.07, 0.00, 0.00, 0.00
230, 24741.50, 18264.82, 5366.59, -6319.58, -2516.72, 5557.29, 8799.46, -10429.37, 0.00, 0.00, 0.00
231, 24736.32, 18265.76, 5359.55, -6340.32, -2350.06, 5542.76, 8785.64, -10453.37, 0.00, 0.00, 0.00
232, 24732.72, 18260.57, 5341.13, -6336.88, -2499.93, 5558.16, 8785.91, -10443.36, 0.00, 0.00, 0.00
233, 24738.08, 18266.63, 5347.86, -6311.48, -2680.73, 5582.53, 8803.21, -10413.34, 0.00, 0.00, 0.00
234, 24738.06, 18264.86, 5356.44, -6322.95, -2554.18, 5564.00, 8801.36, -10429.61, 0.00, 0.00, 0.00
235, 24734.98, 18264.50, 5349.20, -6346.11, -2351.78, 5542.74, 8788.73, -10451.81, 0.00, 0.00, 0.00
236, 24727.09, 18261.33, 5331.99, -6341.32, -2451.90, 5555.84, 8784.06, -10448.68, 0.06, 0.95, 0.20
237, 24732.27, 18266.07, 5335.52, -6321.10, -2664.53, 5577.03, 8796.93, -10428.47, 0.00, 0.00, 0.00
238, 24739.27, 18269.62, 5359.79, -6320.56, -2590.48, 5567.24, 8807.66, -10427.80, 0.00, 0.00, 0.00
239, 24737.68, 18272.30, 5364.62, -6338.44, -2363.63, 5550.79, 8797.94, -10447.70, 0.00, 0.00, 0.00
240, 24739.85, 18275.43, 5352.50, -6335.00, -2403.19, 5568.18, 8794.52, -10442.33, 0.00, 0.00, 0.00
241, 24739.16, 18272.06, 5348.93, -6312.53, -2617.66, 5592.47, 8808.38, -10418.28, 0.00, 0.00, 0.00
242, 24741.39, 18271.57, 5359.48, -6307.95, -2610.80, 5583.04, 8813.09, -10417.19, 0.00, 0.00, 0.00
243, 24737.66, 18270.16, 5357.87, -6335.67, -2396.64, 5552.33, 8790.99, -10447.16, 0.00, 0.00, 0.00
244, 24734.64, 18270.83, 5342.85, -6343.40, -2385.53, 5551.93, 8781.02, -10455.45, 0.00, 0.00, 0.00
245, 24732.32, 18267.43, 5337.71, -6320.89, -2612.67, 5578.75, 8788.79, -10436.86, 0.00, 0.00, 0.00
246, 24735.74, 18269.00, 5347.41, -6313.63, -2661.85, 5578.10, 8792.01, -10434.89, 0.07, 0.95, 0.21
247, 24736.41, 18273.62, 5351.52, -6335.91, -2443.14, 5552.04, 8779.94, -10458.22, 0.00, 0.00, 0.00
248, 24729.84, 18271.92, 5336.28, -6349.68, -2365.86, 5542.18, 8770.09, -10472.73, 0.00, 0.00, 0.00
249, 24738.31, 18281.07, 5334.78, -6325.16, -2569.47, 5574.50, 8789.44, -10444.61, 0.00, 0.00, 0.00
250, 24744.47, 18282.14, 5348.79, -6309.27, -2669.09, 5582.88, 8803.50, -10423.15, 0.00, 0.00, 0.00
251, 24742.31, 18278.88, 5357.40, -6328.56, -2473.27, 5555.70, 8794.94, -10439.02, 0.00, 0.00, 0.00
252, 24741.05, 18279.70, 5354.63, -6339.63, -2339.18, 5547.81, 8787.01, -10454.45, 0.00, 0.00, 0.00
253, 24734.17, 18274.65, 5345.91, -6323.51, -2516.31, 5572.22, 8791.88, -10436.59, 0.00, 0.00, 0.00
254, 24735.31, 18274.65, 5356.98, -6304.00, -2674.45, 5580.92, 8802.43, -10424.09, 0.00, 0.00, 0.00
255, 24747.63, 18290.90, 5378.19, -6306.05, -2497.18, 5568.15, 8809.47, -10436.21, 0.00, 0.00, 0.00
0, 24749.64, 18299.10, 5376.09, -6324.00, -2311.42, 5556.38, 8806.72, -10448.75, 0.07, 0.98, 0.21
1, 24747.43, 18301.47, 5372.85, -6317.00, -2459.88, 5577.61, 8810.32, -10429.90, 0.00, 0.00, 0.00
2, 24753.24, 18305.03, 5382.61, -6297.36, -2658.92, 5590.95, 8820.42, -10412.20, 0.00, 0.00, 0.00
3, 24744.99, 18296.76, 5383.86, -6321.74, -2557.42, 5556.49, 8808.15, -10439.85, 0.00, 0.00, 0.00
4, 24741.48, 18298.72, 5378.48, -6345.86, -2354.40, 5535.59, 8790.56, -10463.37, 0.00, 0.00, 0.00
5, 24749.28, 18313.39, 5383.46, -6330.89, -2433.19, 5563.89, 8798.67, -10445.64, 0.00, 0.00, 0.00
6, 24756.43, 18326.11, 5394.33, -6302.57, -2646.09, 5596.30, 8820.45, -10417.23, 0.00, 0.00, 0.00
7, 24762.80, 18337.28, 5409.08, -6307.53, -2587.42, 5580.58, 8824.04, -10418.91, 0.00, 0.00, 0.00
8, 24758.15, 18337.64, 5408.25, -6336.85, -2364.79, 5553.02, 8809.90, -10447.03, 0.00, 0.00, 0.00
9, 24756.79, 18339.96, 5398.17, -6337.90, -2395.30, 5564.31, 8806.25, -10449.89, 0.00, 0.00, 0.00
10, 24754.02, 18337.21, 5397.34, -6318.15, -2626.17, 5582.75, 8814.48, -10417.43, 0.07, 0.97, 0.21
11, 24761.46, 18345.35, 5411.38, -6316.54, -2632.45, 5570.66, 8819.28, -10419.73, 0.00, 0.00, 0.00
12, 24778.34, 18363.77, 5428.61, -6325.34, -2390.68, 5551.39, 8815.17, -10443.29, 0.00, 0.00, 0.00
13, 24777.91, 18374.23, 5417.46, -6334.51, -2363.45, 5553.65, 8804.33, -10448.26, 0.00, 0.00, 0.00
14, 24783.84, 18380.76, 5415.56, -6313.97, -2578.25, 5580.09, 8818.79, -10422.60, 0.00, 0.00, 0.00
15, 24794.70, 18387.71, 5435.07, -6301.31, -2634.11, 5581.70, 8832.74, -10409.05, 0.00, 0.00, 0.00
16, 24797.40, 18393.61, 5442.07, -6325.50, -2430.24, 5551.90, 8816.33, -10437.39, 0.00, 0.00, 0.00
17, 24799.33, 18398.86, 5428.48, -6337.61, -2346.26, 5549.00, 8804.75, -10448.34, 0.00, 0.00, 0.00
18, 24806.21, 18407.53, 5425.86, -6314.75, -2546.85, 5576.72, 8814.05, -10425.05, 0.00, 0.00, 0.00
19, 24819.58, 18414.57, 5443.86, -6292.78, -2659.23, 5589.17, 8829.83, -10407.40, 0.00, 0.00, 0.00
20, 24827.51, 18419.36, 5452.40, -6306.59, -2463.88, 5570.03, 8825.47, -10424.88, 0.06, 0.97, 0.21
21, 24827.96, 18425.39, 5440.39, -6323.42, -2324.72, 5561.36, 8814.92, -10436.07, 0.00, 0.00, 0.00
22, 24825.54, 18423.07, 5425.66, -6314.59, -2499.35, 5579.35, 8814.52, -10424.45, 0.00, 0.00, 0.00
23, 24829.52, 18421.12, 5428.77, -6300.42, -2659.50, 5589.28, 8826.17, -10412.92, 0.00, 0.00, 0.00
24, 24826.82, 18416.45, 5433.44, -6322.39, -2507.11, 5561.58, 8820.00, -10431.25, 0.00, 0.00, 0.00
25, 24828.36, 18420.43, 5430.65, -6340.23, -2323.75, 5549.89, 8809.90, -10438.58, 0.00, 0.00, 0.00
26, 24831.85, 18426.42, 5421.06, -6328.85, -2450.18, 5575.89, 8817.18, -10425.57, 0.00, 0.00, 0.00
27, 24836.81, 18424.90, 5423.72, -6310.10, -2649.58, 5595.33, 8829.30, -10403.26, 0.00, 0.00, 0.00
28, 24836.45, 18420.03, 5432.01, -6321.41, -2550.20, 5572.74, 8826.19, -10416.05, 0.00, 0.00, 0.00
29, 24828.03, 18416.59, 5424.30, -6345.01, -2333.28, 5553.27, 8815.59, -10428.63, 0.07, 0.97, 0.21
30, 24818.10, 18410.60, 5404.56, -6348.50, -2415.33, 5563.04, 8805.27, -10427.76, 0.00, 0.00, 0.00
31, 24822.86, 18415.69, 5409.52, -6324.90, -2626.96, 5594.66, 8830.70, -10393.65, 0.00, 0.00, 0.00
32, 24827.62, 18425.06, 5423.36, -6320.29, -2577.18, 5586.19, 8839.82, -10394.14, 0.00, 0.00, 0.00
33, 24822.77, 18423.67, 5419.76, -6345.70, -2352.45, 5557.05, 8824.38, -10422.60, 0.00, 0.00, 0.00
34, 24815.60, 18424.05, 5404.20, -6354.65, -2378.11, 5558.03, 8813.07, -10431.13, 0.00, 0.00, 0.00
35, 24822.24, 18432.25, 5406.06, -6329.16, -2601.56, 5590.57, 8825.21, -10407.37, 0.00, 0.00, 0.00
36, 24822.68, 18429.88, 5416.54, -6326.77, -2611.02, 5580.20, 8827.22, -10409.07, 0.00, 0.00, 0.00
37, 24822.91, 18429.93, 5414.91, -6350.76, -2375.36, 5549.51, 8816.02, -10431.69, 0.00, 0.00, 0.00
38, 24818.28, 18431.07, 5409.41, -6355.09, -2344.18, 5555.86, 8810.79, -10436.19, 0.00, 0.00, 0.00
39, 24815.06, 18430.00, 5411.04, -6332.56, -2574.94, 5586.91, 8819.84, -10412.16, 0.07, 0.96, 0.22
40, 24830.42, 18429.15, 5416.52, -6325.90, -2645.66, 5586.57, 8827.02, -10403.33, 0.00, 0.00, 0.00
41, 24822.88, 18425.32, 5415.81, -6350.15, -2437.12, 5559.55, 8812.93, -10430.44, 0.00, 0.00, 0.00
42, 24817.32, 18419.36, 5401.77, -6363.83, -2339.24, 5557.16, 8802.21, -10440.10, 0.00, 0.00, 0.00
43, 24815.00, 18411.33, 5394.86, -6344.03, -2534.40, 5585.46, 8815.97, -10414.93, 0.00, 0.00, 0.00
44, 24820.47, 18414.51, 5401.99, -6329.68, -2656.08, 5591.36, 8827.02, -10404.20, 0.00, 0.00, 0.00
45, 24829.52, 18418.15, 5410.60, -6343.92, -2475.10, 5565.20, 8820.47, -10424.81, 0.00, 0.00, 0.00
46, 24823.98, 18409.97, 5405.50, -6363.61, -2329.05, 5550.30, 8804.35, -10439.74, 0.00, 0.00, 0.00
47, 24824.88, 18410.44, 5399.51, -6347.38, -2488.69, 5573.05, 8814.05, -10419.42, 0.00, 0.00, 0.00
48, 24825.84, 18407.58, 5402.82, -6331.73, -2655.14, 5589.32, 8826.79, -10400.65, 0.00, 0.00, 0.00
49, 24824.47, 18406.06, 5408.21, -6345.59, -2516.85, 5566.77, 8822.32, -10422.13, 0.06, 0.96, 0.22
50, 24814.64, 18395.80, 5392.98, -6372.04, -2338.66, 5539.95, 8798.56, -10453.31, 0.00, 0.00, 0.00
51, 24812.92, 18395.80, 5385.56, -6360.12, -2456.01, 5560.31, 8804.20, -10426.46, 0.00, 0.00, 0.00
52, 24821.32, 18401.39, 5394.91, -6330.71, -2654.40, 5585.21, 8824.36, -10401.21, 0.00, 0.00, 0.00
53, 24827.36, 18405.25, 5409.30, -6331.29, -2558.78, 5576.40, 8825.54, -10409.50, 0.00, 0.00, 0.00
54, 24825.79, 18404.81, 5405.17, -6354.80, -2342.95, 5556.00, 8809.34, -10434.31, 0.00, 0.00, 0.00
55, 24822.64, 18403.17, 5389.65, -6351.38, -2403.10, 5564.35, 8802.68, -10433.64, 0.00, 0.00, 0.00
56, 24825.66, 18401.39, 5394.79, -6327.82, -2621.39, 5588.92, 8818.86, -10404.40, 0.00, 0.00, 0.00
57, 24826.62, 18392.00, 5407.54, -6334.35, -2599.93, 5573.81, 8819.82, -10408.83, 0.00, 0.00, 0.00
58, 24820.96, 18382.70, 5404.29, -6362.96, -2375.90, 5544.37, 8801.69, -10438.91, 0.00, 0.00, 0.00
59, 24815.98, 18381.98, 5389.01, -6367.27, -2380.33, 5554.07, 8798.79, -10438.33, 0.06, 0.96, 0.22
60, 24815.96, 18382.61, 5385.12, -6344.79, -2610.01, 5578.39, 8809.56, -10417.21, 0.00, 0.00, 0.00
61, 24816.96, 18382.03, 5398.42, -6335.02, -2631.43, 5577.86, 8821.70, -10410.88, 0.00, 0.00, 0.00
62, 24817.01, 18375.39, 5401.14, -6356.41, -2407.04, 5551.70, 8812.24, -10436.45, 0.00, 0.00, 0.00
63, 24806.86, 18362.63, 5382.88, -6367.23, -2355.45, 5550.30, 8799.84, -10446.65, 0.00, 0.00, 0.00
64, 24802.37, 18356.91, 5376.40, -6346.31, -2572.26, 5579.73, 8808.96, -10420.70, 0.00, 0.00, 0.00
65, 24809.05, 18360.55, 5392.22, -6332.00, -2649.93, 5586.37, 8822.75, -10405.16, 0.00, 0.00, 0.00
66, 24810.77, 18361.35, 5403.51, -6346.51, -2437.44, 5564.65, 8816.49, -10424.00, 0.00, 0.00, 0.00
67, 24802.41, 18353.66, 5391.08, -6362.36, -2330.66, 5554.34, 8801.65, -10440.43, 0.00, 0.00, 0.00
68, 24795.53, 18345.44, 5379.53, -6349.10, -2523.85, 5577.65, 8806.12, -10424.05, 0.00, 0.00, 0.00
69, 24801.70, 18343.16, 5389.25, -6330.57, -2656.04, 5589.84, 8820.98, -10405.47, 0.06, 0.96, 0.21
70, 24807.57, 18347.50, 5399.42, -6341.32, -2479.32, 5573.25, 8820.62, -10417.79, 0.00, 0.00, 0.00
71, 24797.45, 18341.80, 5383.22, -6364.82, -2322.55, 5555.17, 8803.37, -10445.04, 0.00, 0.00, 0.00
72, 24792.29, 18339.81, 5363.81, -6358.89, -2479.28, 5573.16, 8800.53, -10438.13, 0.00, 0.00, 0.00
73, 24795.66, 18338.02, 5370.41, -6336.45, -2655.34, 5589.43, 8817.96, -10415.33, 0.00, 0.00, 0.00
74, 24797.94, 18332.19, 5378.81, -6344.92, -2511.29, 5572.36, 8817.43, -10422.37, 0.00, 0.00, 0.00
75, 24792.58, 18329.35, 5370.41, -6367.61, -2319.93, 5550.38, 8797.78, -10444.05, 0.00, 0.00, 0.00
76, 24787.95, 18323.98, 5362.54, -6361.15, -2437.23, 5567.42, 8798.03, -10432.03, 0.00, 0.00, 0.00
77, 24791.91, 18324.54, 5370.41, -6337.81, -2646.04, 5589.52, 8813.94, -10402.72, 0.00, 0.00, 0.00
78, 24796.11, 18326.33, 5386.01, -6342.80, -2563.99, 5576.40, 8817.16, -10410.88, 0.00, 0.00, 0.00
79, 24782.52, 18317.48, 5376.47, -6375.41, -2346.13, 5547.10, 8799.28, -10443.16, 0.06, 0.96, 0.21
80, 24775.88, 18313.66, 5360.75, -6378.23, -2399.97, 5556.04, 8794.09, -10447.92, 0.00, 0.00, 0.00
81, 24782.16, 18314.66, 5365.33, -6349.06, -2622.28, 5585.21, 8810.45, -10418.01, 0.00, 0.00, 0.00
82, 24786.05, 18314.06, 5378.63, -6346.84, -2596.53, 5574.79, 8815.33, -10421.81, 0.00, 0.00, 0.00
83, 24784.87, 18320.36, 5377.52, -6368.28, -2366.27, 5553.78, 8803.14, -10443.90, 0.00, 0.00, 0.00
84, 24777.38, 18320.58, 5359.41, -6376.42, -2368.39, 5558.16, 8790.70, -10450.25, 0.00, 0.00, 0.00
85, 24779.68, 18317.79, 5362.56, -6347.81, -2589.63, 5591.40, 8809.56, -10416.05, 0.00, 0.00, 0.00
86, 24786.47, 18319.91, 5379.51, -6334.17, -2622.28, 5593.66, 8822.03, -10407.69, 0.00, 0.00, 0.00
87, 24783.63, 18317.21, 5381.25, -6356.25, -2401.38, 5566.17, 8810.90, -10428.94, 0.00, 0.00, 0.00
88, 24777.64, 18318.48, 5372.15, -6363.97, -2336.56, 5564.82, 8804.29, -10433.93, 0.00, 0.00, 0.00
89, 24776.21, 18315.38, 5370.05, -6346.02, -2544.99, 5591.56, 8813.83, -10415.22, 0.07, 0.97, 0.21
90, 24773.87, 18305.38, 5372.47, -6345.53, -2644.52, 5588.43, 8815.42, -10416.45, 0.00, 0.00, 0.00
91, 24773.13, 18304.31, 5377.76, -6366.51, -2443.51, 5558.66, 8810.19, -10434.67, 0.00, 0.00, 0.00
92, 24776.44, 18314.71, 5376.06, -6374.02, -2312.31, 5559.30, 8810.16, -10437.97, 0.00, 0.00, 0.00
93, 24770.67, 18308.98, 5360.69, -6364.15, -2500.87, 5579.67, 8814.52, -10425.30, 0.00, 0.00, 0.00
94, 24773.98, 18308.96, 5366.05, -6345.93, -2649.62, 5591.29, 8824.78, -10412.56, 0.00, 0.00, 0.00
95, 24778.12, 18313.19, 5372.53, -6356.08, -2481.49, 5570.37, 8819.30, -10423.42, 0.00, 0.00, 0.00
96, 24773.35, 18312.09, 5361.54, -6371.59, -2311.62, 5559.95, 8806.18, -10431.85, 0.00, 0.00, 0.00
97, 24764.86, 18308.65, 5343.70, -6362.56, -2452.63, 5580.25, 8807.84, -10424.45, 0.00, 0.00, 0.00
98, 24772.13, 18313.86, 5353.60, -6339.63, -2646.40, 5599.63, 8819.89, -10406.37, 0.00, 0.00, 0.00
99, 24775.21, 18313.14, 5365.47, -6348.61, -2529.39, 5582.84, 8816.85, -10419.58, 0.07, 0.97, 0.21
100, 24771.23, 18308.47, 5360.64, -6370.67, -2325.52, 5563.97, 8805.78, -10434.69, 0.00, 0.00, 0.00
101, 24767.43, 18307.73, 5349.85, -6365.71, -2420.96, 5580.36, 8809.27, -10423.07, 0.00, 0.00, 0.00
102, 24768.55, 18306.14, 5350.54, -6346.17, -2636.90, 5595.71, 8817.43, -10408.22, 0.00, 0.00, 0.00
103, 24773.44, 18310.30, 5361.54, -6348.50, -2573.16, 5579.49, 8818.50, -10417.63, 0.00, 0.00, 0.00
104, 24768.48, 18309.14, 5356.13, -6372.97, -2352.99, 5554.77, 8801.71, -10442.82, 0.00, 0.00, 0.00
105, 24766.49, 18311.53, 5345.26, -6368.30, -2392.87, 5570.64, 8798.16, -10437.82, 0.00, 0.00, 0.00
106, 24769.11, 18312.52, 5344.77, -6344.03, -2617.14, 5599.42, 8811.08, -10415.60, 0.00, 0.00, 0.00
107, 24774.18, 18309.30, 5357.89, -6339.47, -2611.69, 5589.79, 8817.50, -10419.20, 0.00, 0.00, 0.00
108, 24772.97, 18307.62, 5362.05, -6358.40, -2381.38, 5567.15, 8805.00, -10439.45, 0.00, 0.00, 0.00
109, 24768.84, 18307.35, 5351.19, -6358.53, -2360.41, 5576.40, 8799.84, -10437.75, 0.06, 0.97, 0.21
110, 24763.21, 18300.47, 5342.25, -6340.68, -2585.58, 5598.31, 8806.39, -10422.15, 0.00, 0.00, 0.00
111, 24774.90, 18305.14, 5361.87, -6325.30, -2631.14, 5602.00, 8823.49, -10409.36, 0.00, 0.00, 0.00
112, 24774.18, 18302.30, 5368.42, -6344.72, -2408.71, 5579.64, 8815.15, -10426.55, 0.00, 0.00, 0.00
113, 24766.69, 18293.96, 5353.42, -6361.82, -2335.27, 5571.28, 8795.05, -10445.44, 0.00, 0.00, 0.00
114, 24770.07, 18294.52, 5352.71, -6344.34, -2540.21, 5597.28, 8807.46, -10429.95, 0.00, 0.00, 0.00
115, 24776.82, 18297.45, 5368.40, -6326.66, -2639.45, 5610.42, 8824.29, -10403.78, 0.00, 0.00, 0.00
116, 24770.38, 18290.46, 5369.96, -6352.63, -2436.16, 5583.09, 8815.80, -10421.21, 0.00, 0.00, 0.00
117, 24764.44, 18286.30, 5359.61, -6372.15, -2308.02, 5569.90, 8803.64, -10438.87, 0.00, 0.00, 0.00
118, 24759.50, 18281.51, 5350.09, -6359.03, -2494.52, 5593.64, 8804.98, -10420.61, 0.06, 0.97, 0.21
119, 24761.02, 18282.01, 5355.68, -6343.85, -2652.35, 5603.34, 8816.78, -10409.01, 0.00, 0.00, 0.00
120, 24766.18, 18282.92, 5362.47, -6358.09, -2496.38, 5576.20, 8811.37, -10427.40, 0.00, 0.00, 0.00
121, 24769.31, 18287.57, 5355.92, -6372.91, -2318.03, 5565.11, 8802.34, -10442.24, 0.00, 0.00, 0.00
122, 24762.74, 18290.21, 5348.73, -6354.58, -2444.14, 5595.29, 8811.73, -10422.19, 0.00, 0.00, 0.00
123, 24757.10, 18284.69, 5358.79, -6327.22, -2631.29, 5620.26, 8832.31, -10393.74, 0.00, 0.00, 0.00
124, 24754.47, 18277.49, 5368.13, -6338.80, -2521.41, 5597.68, 8829.90, -10410.86, 0.00, 0.00, 0.00
125, 24745.93, 18271.57, 5355.50, -6370.56, -2318.75, 5569.61, 8806.21, -10442.53, 0.00, 0.00, 0.00
126, 24745.26, 18270.07, 5343.63, -6366.09, -2402.83, 5589.12, 8803.41, -10432.77, 0.00, 0.00, 0.00
127, 24757.19, 18277.36, 5350.25, -6337.81, -2614.73, 5617.60, 8822.66, -10400.94, 0.00, 0.00, 0.00
128, 24764.23, 18281.85, 5358.41, -6339.74, -2562.34, 5601.26, 8825.41, -10407.80, 0.06, 0.97, 0.21
129, 24758.74, 18278.99, 5352.50, -6364.17, -2338.57, 5572.83, 8809.78, -10431.74, 0.00, 0.00, 0.00
130, 24751.79, 18273.40, 5340.23, -6363.25, -2367.07, 5582.59, 8805.38, -10422.22, 0.00, 0.00, 0.00
131, 24747.31, 18265.38, 5336.46, -6343.63, -2594.79, 5605.79, 8814.25, -10409.01, 0.00, 0.00, 0.00
132, 24757.19, 18273.94, 5354.56, -6331.58, -2598.23, 5605.50, 8822.64, -10405.54, 0.00, 0.00, 0.00
133, 24757.42, 18278.52, 5358.07, -6350.56, -2371.43, 5577.86, 8808.89, -10435.85, 0.00, 0.00, 0.00
134, 24754.67, 18277.27, 5347.41, -6354.38, -2339.27, 5580.72, 8801.16, -10441.48, 0.00, 0.00, 0.00
135, 24753.82, 18275.97, 5346.07, -6328.87, -2555.85, 5614.89, 8815.55, -10402.05, 0.00, 0.00, 0.00
136, 24760.37, 18281.47, 5360.91, -6317.23, -2615.96, 5616.41, 8828.00, -10390.83, 0.00, 0.00, 0.00
137, 24753.10, 18274.96, 5359.68, -6343.96, -2403.68, 5585.66, 8811.93, -10423.09, 0.00, 0.00, 0.00
138, 24742.58, 18266.16, 5344.73, -6357.98, -2320.78, 5578.48, 8798.54, -10434.04, 0.06, 0.97, 0.21
139, 24739.92, 18257.26, 5332.88, -6345.53, -2525.05, 5600.39, 8802.56, -10421.25, 0.00, 0.00, 0.00
140, 24746.64, 18258.67, 5344.77, -6328.25, -2633.55, 5611.47, 8817.03, -10405.79, 0.00, 0.00, 0.00
141, 24744.45, 18257.11, 5350.38, -6348.36, -2440.36, 5584.92, 8810.88, -10426.78, 0.00, 0.00, 0.00
142, 24737.44, 18256.26, 5339.63, -6369.26, -2314.17, 5572.98, 8791.03, -10443.81, 0.00, 0.00, 0.00
143, 24738.71, 18255.29, 5335.79, -6352.41, -2484.64, 5600.59, 8801.87, -10419.20, 0.00, 0.00, 0.00
144, 24744.63, 18251.72, 5345.31, -6333.19, -2644.57, 5612.84, 8815.89, -10401.45, 0.00, 0.00, 0.00
145, 24751.52, 18258.04, 5355.39, -6343.51, -2495.66, 5589.10, 8815.82, -10415.42, 0.00, 0.00, 0.00
146, 24741.93, 18253.33, 5339.50, -6371.14, -2316.13, 5564.15, 8794.58, -10447.21, 0.00, 0.00, 0.00
147, 24735.67, 18248.12, 5322.96, -6364.01, -2445.88, 5581.21, 8792.73, -10436.23, 0.00, 0.00, 0.00
148, 24746.76, 18253.80, 5332.01, -6334.71, -2642.00, 5607.18, 8814.37, -10405.59, 0.07, 0.97, 0.21
149, 24747.27, 18251.36, 5341.06, -6343.20, -2543.00, 5590.15, 8813.11, -10418.28, 0.00, 0.00, 0.00
150, 24739.89, 18247.03, 5332.10, -6368.03, -2329.25, 5568.80, 8796.39, -10440.41, 0.00, 0.00, 0.00
151, 24737.59, 18245.42, 5321.53, -6359.67, -2398.41, 5584.07, 8797.78, -10435.78, 0.00, 0.00, 0.00
152, 24740.59, 18246.71, 5325.17, -6332.76, -2621.41, 5608.07, 8811.24, -10415.58, 0.00, 0.00, 0.00
153, 24746.80, 18248.88, 5339.85, -6331.40, -2579.12, 5596.36, 8814.79, -10410.03, 0.00, 0.00, 0.00
