%OpenBCI Raw EEG Data
%
%Sample Rate = 250.0 Hz
%First Column = SampleIndex
%Other Columns = EEG data in microvolts followed by Accel Data (in G) interleaved with Aux Data
0, 28550.11, 24777.94, 7981.38, -7305.31, 60808.57, 16824.22, 27237.97, 23324.92, 0.00, 0.00, 0.00
1, 28542.71, 24794.86, 7964.66, -7317.83, 60496.69, 16797.25, 27236.40, 23276.30, 0.00, 0.00, 0.00
2, 28529.05, 24765.04, 7960.53, -7318.16, 60569.47, 16813.32, 27316.49, 23409.72, 0.00, 0.00, 0.00
3, 28539.98, 24743.87, 7970.48, -7305.62, 60931.19, 16845.64, 27338.73, 23519.24, 0.00, 0.00, 0.00
4, 28552.95, 24752.12, 7975.19, -7302.45, 60858.90, 16820.58, 27232.29, 23348.74, 0.00, 0.00, 0.00
5, 28536.54, 24735.51, 7962.03, -7323.41, 60535.65, 16785.47, 27215.10, 23250.80, 0.00, 0.00, 0.00
6, 28526.44, 24718.68, 7963.88, -7330.88, 60532.34, 16796.80, 27287.21, 23367.63, 0.00, 0.00, 0.00
7, 28539.00, 24731.69, 7978.77, -7317.45, 60860.18, 16841.90, 27327.35, 23506.93, 0.00, 0.00, 0.00
8, 28551.18, 24750.96, 7980.42, -7311.90, 60901.95, 16823.84, 27249.21, 23384.69, 0.00, 0.00, 0.00
9, 28534.75, 24746.17, 7960.82, -7333.85, 60565.98, 16782.27, 27191.68, 23249.05, 0.12, 0.92, 0.33
10, 28521.74, 24730.24, 7956.82, -7334.86, 60493.23, 16789.82, 27242.89, 23342.95, 0.00, 0.00, 0.00
11, 28542.13, 24743.51, 7972.73, -7313.47, 60811.45, 16835.71, 27324.72, 23505.94, 0.00, 0.00, 0.00
12, 28557.17, 24741.32, 7981.79, -7299.36, 60952.56, 16833.12, 27270.54, 23424.34, 0.00, 0.00, 0.00
13, 28545.30, 24719.87, 7971.73, -7307.37, 60622.69, 16794.01, 27206.03, 23245.95, 0.00, 0.00, 0.00
14, 28525.70, 24701.69, 7956.57, -7321.45, 60484.60, 16785.00, 27232.20, 23298.38, 0.00, 0.00, 0.00
15, 28515.04, 24692.93, 7956.93, -7320.58, 60735.81, 16817.21, 27302.03, 23457.42, 0.00, 0.00, 0.00
16, 28504.37, 24692.13, 7962.70, -7315.81, 60943.73, 16823.89, 27260.14, 23432.70, 0.00, 0.00, 0.00
17, 28515.30, 24698.81, 7965.87, -7314.59, 60659.95, 16800.67, 27196.30, 23263.00, 0.00, 0.00, 0.00
18, 28508.26, 24686.96, 7949.62, -7327.46, 60461.55, 16782.27, 27233.72, 23289.31, 0.00, 0.00, 0.00
19, 28503.75, 24681.35, 7954.40, -7325.09, 60660.75, 16817.07, 27292.35, 23450.42, 0.12, 0.93, 0.33
20, 28509.63, 24678.36, 7954.00, -7324.42, 60944.00, 16832.96, 27274.69, 23463.83, 0.00, 0.00, 0.00
21, 28483.95, 24667.07, 7949.08, -7325.99, 60717.75, 16795.50, 27195.86, 23253.70, 0.00, 0.00, 0.00
22, 28494.36, 24659.05, 7944.86, -7324.69, 60452.39, 16785.89, 27206.47, 23239.18, 0.00, 0.00, 0.00
23, 28498.05, 24653.57, 7938.78, -7322.16, 60568.89, 16804.33, 27265.80, 23386.81, 0.00, 0.00, 0.00
24, 28493.51, 24662.56, 7949.04, -7305.35, 60913.78, 16831.82, 27286.03, 23464.64, 0.00, 0.00, 0.00
25, 28493.73, 24653.86, 7944.15, -7304.37, 60779.22, 16802.30, 27189.73, 23275.29, 0.00, 0.00, 0.00
26, 28462.11, 24630.08, 7916.90, -7328.29, 60478.59, 16768.14, 27161.01, 23202.83, 0.00, 0.00, 0.00
27, 28407.66, 24586.85, 7888.85, -7350.17, 60512.00, 16764.23, 27231.60, 23308.35, 0.00, 0.00, 0.00
28, 28429.83, 24597.60, 7916.05, -7316.87, 60877.84, 16819.73, 27293.33, 23446.06, 0.00, 0.00, 0.00
29, 28407.48, 24593.49, 7903.84, -7331.37, 60845.89, 16785.56, 27185.58, 23281.20, 0.12, 0.93, 0.33
30, 28439.11, 24623.69, 7905.77, -7329.79, 60522.89, 16772.53, 27150.08, 23186.94, 0.00, 0.00, 0.00
31, 28438.86, 24609.65, 7904.36, -7329.67, 60475.86, 16785.91, 27193.94, 23298.52, 0.00, 0.00, 0.00
32, 28421.16, 24594.72, 7914.15, -7318.39, 60798.73, 16818.97, 27231.11, 23454.49, 0.00, 0.00, 0.00
33, 28392.82, 24572.79, 7916.70, -7315.59, 60870.82, 16791.70, 27142.64, 23329.56, 0.00, 0.00, 0.00
34, 28372.30, 24561.08, 7924.23, -7310.12, 60534.09, 16772.90, 27096.97, 23184.86, 0.00, 0.00, 0.00
35, 28325.22, 24521.56, 7902.10, -7329.25, 60429.95, 16763.54, 27159.92, 23235.44, 0.00, 0.00, 0.00
36, 28340.83, 24536.72, 7938.78, -7295.39, 60753.43, 16822.12, 27241.28, 23408.98, 0.00, 0.00, 0.00
37, 28345.16, 24548.32, 7958.03, -7282.40, 60939.59, 16821.99, 27190.20, 23341.55, 0.00, 0.00, 0.00
38, 28277.39, 24506.63, 7934.73, -7307.81, 60590.68, 16772.21, 27072.88, 23141.14, 0.00, 0.00, 0.00
39, 28252.69, 24497.09, 7937.31, -7306.85, 60426.20, 16775.34, 27122.43, 23207.79, 0.12, 0.93, 0.33
40, 28224.69, 24492.24, 7948.08, -7298.92, 60667.95, 16813.99, 27188.13, 23380.39, 0.00, 0.00, 0.00
41, 28203.97, 24488.30, 7944.35, -7297.44, 60912.28, 16816.87, 27142.55, 23362.11, 0.00, 0.00, 0.00
42, 28167.13, 24480.90, 7954.40, -7294.96, 60651.12, 16790.54, 27045.86, 23197.87, 0.00, 0.00, 0.00
43, 28136.69, 24467.22, 7953.89, -7300.06, 60417.28, 16783.86, 27051.82, 23225.16, 0.00, 0.00, 0.00
44, 28108.35, 24455.33, 7958.11, -7306.38, 60596.09, 16813.59, 27114.14, 23371.43, 0.00, 0.00, 0.00
45, 28065.12, 24447.69, 7966.25, -7307.19, 60887.85, 16821.92, 27092.01, 23403.48, 0.00, 0.00, 0.00
46, 28034.05, 24457.48, 7989.94, -7299.27, 60693.21, 16801.22, 27017.20, 23207.46, 0.00, 0.00, 0.00
47, 28001.88, 24448.25, 7993.45, -7309.82, 60417.64, 16783.95, 27045.99, 23164.70, 0.00, 0.00, 0.00
48, 27956.42, 24435.44, 7998.97, -7311.01, 60509.72, 16808.15, 27099.43, 23310.90, 0.00, 0.00, 0.00
49, 27926.34, 24451.91, 8006.51, -7302.07, 60854.32, 16832.23, 27089.26, 23390.23, 0.12, 0.93, 0.33
50, 27894.08, 24444.40, 8003.27, -7300.93, 60749.04, 16794.18, 26997.80, 23187.23, 0.00, 0.00, 0.00
51, 27819.18, 24364.88, 7981.09, -7320.91, 60434.60, 16764.72, 26964.36, 23084.12, 0.00, 0.00, 0.00
52, 27788.29, 24365.79, 7996.29, -7309.80, 60446.78, 16800.04, 27026.68, 23171.52, 0.00, 0.00, 0.00
53, 27795.06, 24381.86, 8034.71, -7284.48, 60808.19, 16844.79, 27108.60, 23259.49, 0.00, 0.00, 0.00
54, 27763.46, 24383.65, 8025.89, -7304.37, 60824.08, 16814.57, 27003.03, 23076.39, 0.00, 0.00, 0.00
55, 27737.42, 24364.14, 8024.34, -7315.90, 60473.52, 16786.61, 26934.16, 22937.56, 0.00, 0.00, 0.00
56, 27712.09, 24313.33, 8020.27, -7324.09, 60401.63, 16786.34, 26981.51, 23027.35, 0.00, 0.00, 0.00
57, 27723.02, 24319.32, 8038.60, -7310.56, 60741.96, 16827.71, 27056.14, 23180.41, 0.00, 0.00, 0.00
58, 27743.52, 24336.49, 8053.80, -7298.11, 60859.51, 16825.99, 26974.26, 23089.06, 0.12, 0.92, 0.33
59, 27733.28, 24320.48, 8046.72, -7310.81, 60516.79, 16792.04, 26912.64, 22956.00, 0.00, 0.00, 0.00
60, 27716.74, 24296.10, 8046.09, -7318.21, 60385.31, 16795.32, 26964.96, 23058.01, 0.00, 0.00, 0.00
61, 27715.51, 24287.47, 8051.05, -7314.36, 60656.95, 16839.16, 27011.28, 23219.80, 0.00, 0.00, 0.00
62, 27742.18, 24298.67, 8069.27, -7299.61, 60870.97, 16856.84, 26974.17, 23146.75, 0.00, 0.00, 0.00
63, 27738.98, 24280.16, 8056.86, -7313.78, 60574.19, 16813.81, 26901.35, 22968.85, 0.00, 0.00, 0.00
64, 27724.86, 24255.62, 8053.56, -7322.03, 60388.60, 16801.43, 26936.62, 23030.72, 0.00, 0.00, 0.00
65, 27701.66, 24229.76, 8057.92, -7327.39, 60610.29, 16817.70, 26999.16, 23191.32, 0.00, 0.00, 0.00
66, 27749.38, 24258.41, 8079.04, -7317.02, 60894.00, 16830.86, 26977.64, 23190.11, 0.00, 0.00, 0.00
67, 27755.46, 24269.32, 8082.03, -7320.40, 60634.38, 16800.11, 26895.00, 22975.20, 0.00, 0.00, 0.00
68, 27730.76, 24233.20, 8075.31, -7332.91, 60396.33, 16783.10, 26920.60, 22965.46, 0.12, 0.92, 0.33
69, 27732.23, 24224.78, 8090.12, -7325.31, 60531.34, 16815.08, 27004.30, 23131.66, 0.00, 0.00, 0.00
70, 27738.49, 24234.63, 8097.12, -7326.10, 60850.92, 16834.42, 26993.84, 23217.74, 0.00, 0.00, 0.00
71, 27746.20, 24246.77, 8102.35, -7322.95, 60682.48, 16806.28, 26880.86, 23066.06, 0.00, 0.00, 0.00
72, 27771.19, 24265.37, 8111.22, -7310.36, 60397.25, 16799.82, 26914.81, 23075.56, 0.00, 0.00, 0.00
73, 27751.46, 24228.04, 8106.11, -7312.98, 60473.78, 16812.91, 27000.01, 23241.25, 0.00, 0.00, 0.00
74, 27770.95, 24236.00, 8124.66, -7294.16, 60821.64, 16848.30, 27048.72, 23375.41, 0.00, 0.00, 0.00
75, 27768.94, 24230.27, 8118.96, -7302.69, 60728.05, 16812.94, 26927.28, 23218.75, 0.00, 0.00, 0.00
76, 27761.00, 24218.40, 8111.90, -7315.90, 60409.77, 16784.24, 26913.22, 23165.88, 0.00, 0.00, 0.00
77, 27766.21, 24212.50, 8104.59, -7324.87, 60417.14, 16793.74, 26992.35, 23323.17, 0.00, 0.00, 0.00
78, 27786.77, 24233.89, 8130.69, -7300.10, 60785.43, 16862.51, 27055.29, 23496.82, 0.12, 0.93, 0.34
79, 27814.82, 24255.40, 8144.89, -7289.42, 60812.75, 16878.00, 26971.18, 23372.32, 0.00, 0.00, 0.00
80, 27822.00, 24255.58, 8127.52, -7300.59, 60466.34, 16857.26, 26913.96, 23255.00, 0.00, 0.00, 0.00
81, 27804.47, 24241.85, 8110.53, -7308.17, 60391.35, 16862.96, 26991.76, 23353.73, 0.00, 0.00, 0.00
82, 27807.87, 24254.62, 8121.82, -7290.78, 60705.48, 16909.96, 27064.70, 23523.04, 0.00, 0.00, 0.00
83, 27808.88, 24263.73, 8127.79, -7286.31, 60821.64, 16908.29, 26984.43, 23452.32, 0.00, 0.00, 0.00
84, 27786.48, 24243.89, 8111.51, -7303.83, 60487.30, 16877.62, 26916.75, 23290.27, 0.00, 0.00, 0.00
85, 27808.38, 24251.89, 8107.78, -7306.43, 60340.19, 16882.88, 26987.56, 23350.53, 0.00, 0.00, 0.00
86, 27832.64, 24272.38, 8120.46, -7298.56, 60628.30, 16926.01, 27080.63, 23534.96, 0.00, 0.00, 0.00
87, 27844.86, 24283.98, 8124.03, -7291.12, 60846.18, 16932.88, 27022.56, 23510.99, 0.00, 0.00, 0.00
88, 27839.57, 24277.30, 8107.20, -7306.27, 60549.11, 16895.50, 26923.90, 23338.95, 0.12, 0.93, 0.35
89, 27840.84, 24265.03, 8093.43, -7319.44, 60356.10, 16885.40, 26971.04, 23398.28, 0.00, 0.00, 0.00
90, 27838.65, 24260.94, 8092.14, -7324.13, 60545.98, 16917.28, 27050.04, 23570.03, 0.00, 0.00, 0.00
91, 27866.46, 24285.95, 8117.44, -7312.98, 60842.79, 16933.03, 27044.58, 23598.26, 0.00, 0.00, 0.00
92, 27869.36, 24288.25, 8118.91, -7323.64, 60623.09, 16894.99, 26952.16, 23404.31, 0.00, 0.00, 0.00
93, 27857.34, 24279.27, 8112.99, -7337.00, 60363.36, 16881.67, 26974.44, 23408.09, 0.00, 0.00, 0.00
94, 27887.96, 24298.67, 8122.69, -7333.63, 60503.15, 16909.41, 27044.25, 23589.56, 0.00, 0.00, 0.00
95, 27914.76, 24308.39, 8150.90, -7317.11, 60841.40, 16941.48, 27050.75, 23660.71, 0.00, 0.00, 0.00
96, 27903.38, 24305.82, 8155.73, -7326.32, 60679.15, 16908.74, 26975.56, 23447.40, 0.00, 0.00, 0.00
97, 27906.89, 24305.33, 8152.31, -7336.54, 60362.63, 16894.14, 26972.90, 23401.94, 0.00, 0.00, 0.00
98, 27908.83, 24305.64, 8153.58, -7339.35, 60416.83, 16920.45, 27039.82, 23559.50, 0.12, 0.94, 0.36
99, 27925.31, 24315.57, 8165.56, -7326.05, 60778.04, 16962.78, 27128.13, 23678.07, 0.00, 0.00, 0.00
100, 27928.17, 24320.78, 8164.73, -7331.42, 60719.83, 16938.40, 27053.90, 23482.88, 0.00, 0.00, 0.00
101, 27912.84, 24310.72, 8150.05, -7350.42, 60398.75, 16912.16, 27003.05, 23377.15, 0.00, 0.00, 0.00
102, 27906.64, 24303.43, 8148.40, -7353.52, 60387.77, 16933.48, 27054.57, 23498.19, 0.00, 0.00, 0.00
103, 27917.53, 24317.51, 8164.89, -7340.45, 60732.57, 16984.51, 27103.30, 23644.84, 0.00, 0.00, 0.00
104, 27946.34, 24343.08, 8176.13, -7335.93, 60778.28, 16980.51, 27026.16, 23510.19, 0.00, 0.00, 0.00
105, 27936.53, 24327.93, 8160.38, -7358.51, 60433.17, 16941.24, 26958.08, 23352.45, 0.00, 0.00, 0.00
106, 27966.52, 24340.06, 8179.04, -7347.20, 60354.65, 16965.82, 27027.71, 23456.01, 0.00, 0.00, 0.00
107, 27967.73, 24343.22, 8191.11, -7345.05, 60676.63, 17009.45, 27104.66, 23617.39, 0.00, 0.00, 0.00
108, 27976.56, 24358.73, 8197.28, -7346.21, 60818.91, 17014.10, 27076.03, 23538.89, 0.13, 0.93, 0.35
109, 27977.21, 24355.42, 8188.38, -7359.92, 60471.05, 16981.42, 27010.72, 23368.19, 0.00, 0.00, 0.00
110, 27965.36, 24344.31, 8175.06, -7376.88, 60308.22, 16973.33, 27048.38, 23427.40, 0.00, 0.00, 0.00
111, 27962.39, 24343.60, 8174.68, -7382.62, 60569.63, 17001.18, 27115.66, 23594.88, 0.00, 0.00, 0.00
112, 27996.14, 24374.60, 8187.40, -7373.50, 60800.95, 17009.99, 27085.69, 23576.31, 0.00, 0.00, 0.00
113, 28005.33, 24378.69, 8188.47, -7380.50, 60519.49, 16975.10, 26997.67, 23383.14, 0.00, 0.00, 0.00
114, 28011.23, 24379.79, 8189.01, -7383.29, 60302.90, 16969.00, 27045.92, 23408.18, 0.00, 0.00, 0.00
115, 28013.24, 24386.00, 8196.05, -7376.99, 60490.05, 17000.00, 27142.15, 23576.40, 0.00, 0.00, 0.00
116, 28023.37, 24405.53, 8211.65, -7372.43, 60797.79, 17008.87, 27134.37, 23610.30, 0.00, 0.00, 0.00
117, 28026.45, 24394.34, 8215.56, -7374.60, 60584.85, 16971.14, 27023.30, 23411.37, 0.00, 0.00, 0.00
118, 28018.69, 24383.43, 8206.87, -7382.36, 60313.50, 16947.29, 27004.68, 23397.34, 0.11, 0.94, 0.34
119, 28010.38, 24383.54, 8208.41, -7382.33, 60428.92, 16971.95, 27091.39, 23556.08, 0.00, 0.00, 0.00
120, 28022.04, 24401.64, 8228.03, -7366.02, 60769.56, 17007.29, 27154.98, 23654.13, 0.00, 0.00, 0.00
121, 28043.86, 24416.51, 8228.41, -7372.54, 60629.15, 16973.38, 27043.49, 23469.69, 0.00, 0.00, 0.00
122, 28042.34, 24413.38, 8211.85, -7387.94, 60330.82, 16948.95, 27008.26, 23418.91, 0.00, 0.00, 0.00
123, 28048.94, 24416.69, 8208.19, -7387.83, 60369.76, 16967.72, 27105.56, 23548.10, 0.00, 0.00, 0.00
124, 28063.02, 24426.54, 8218.36, -7373.44, 60712.84, 17007.40, 27151.13, 23659.86, 0.00, 0.00, 0.00
125, 28073.01, 24429.65, 8214.62, -7375.96, 60675.06, 16976.31, 27060.90, 23485.20, 0.00, 0.00, 0.00
126, 28064.60, 24417.11, 8206.11, -7385.80, 60341.64, 16948.59, 27038.93, 23374.09, 0.00, 0.00, 0.00
127, 28052.80, 24418.50, 8200.74, -7392.12, 60291.48, 16956.39, 27088.10, 23476.17, 0.00, 0.00, 0.00
128, 28064.51, 24425.94, 8201.41, -7392.10, 60627.79, 16983.32, 27129.18, 23608.43, 0.11, 0.94, 0.34
129, 28100.48, 24454.55, 8218.20, -7371.54, 60702.95, 16980.96, 27071.94, 23494.54, 0.00, 0.00, 0.00
130, 28098.09, 24445.90, 8205.39, -7379.03, 60371.57, 16947.34, 27017.76, 23351.85, 0.00, 0.00, 0.00
131, 28081.99, 24425.99, 8191.67, -7390.96, 60274.85, 16938.78, 27066.20, 23428.11, 0.00, 0.00, 0.00
132, 28087.07, 24428.06, 8197.08, -7380.52, 60564.55, 16978.16, 27151.60, 23584.08, 0.00, 0.00, 0.00
133, 28099.58, 24439.13, 8203.25, -7375.02, 60732.01, 16975.99, 27091.14, 23522.66, 0.00, 0.00, 0.00
134, 28086.55, 24430.43, 8190.71, -7390.56, 60406.84, 16937.50, 27024.58, 23353.41, 0.00, 0.00, 0.00
135, 28082.71, 24424.82, 8180.76, -7399.50, 60231.31, 16935.71, 27067.92, 23405.92, 0.00, 0.00, 0.00
136, 28094.87, 24430.97, 8186.93, -7392.39, 60486.19, 16974.05, 27132.60, 23581.29, 0.00, 0.00, 0.00
137, 28105.60, 24444.11, 8197.12, -7383.94, 60757.98, 16983.10, 27110.09, 23579.05, 0.00, 0.00, 0.00
138, 28115.88, 24453.19, 8189.21, -7389.53, 60486.66, 16950.13, 27013.22, 23382.32, 0.12, 0.93, 0.34
139, 28101.26, 24449.63, 8173.34, -7399.37, 60265.73, 16937.73, 27047.73, 23392.11, 0.00, 0.00, 0.00
140, 28106.36, 24447.87, 8176.87, -7389.87, 60448.77, 16967.79, 27135.80, 23549.19, 0.00, 0.00, 0.00
141, 28118.92, 24453.68, 8186.50, -7379.56, 60762.50, 16979.08, 27123.04, 23584.08, 0.00, 0.00, 0.00
142, 28123.63, 24458.69, 8179.42, -7382.31, 60550.92, 16943.02, 27010.61, 23384.55, 0.00, 0.00, 0.00
143, 28113.04, 24447.46, 8172.40, -7382.67, 60271.32, 16930.80, 27061.55, 23370.47, 0.00, 0.00, 0.00
144, 28123.90, 24453.01, 8177.85, -7378.27, 60373.00, 16961.15, 27138.48, 23509.63, 0.00, 0.00, 0.00
145, 28126.05, 24455.02, 8179.29, -7378.33, 60707.18, 16983.03, 27135.53, 23584.89, 0.00, 0.00, 0.00
146, 28143.44, 24478.54, 8186.50, -7368.81, 60623.88, 16962.31, 27065.62, 23421.68, 0.00, 0.00, 0.00
147, 28139.26, 24466.04, 8176.45, -7377.84, 60313.79, 16932.63, 27042.84, 23353.24, 0.12, 0.93, 0.34
148, 28140.46, 24460.59, 8171.75, -7379.54, 60325.41, 16949.01, 27088.39, 23481.27, 0.00, 0.00, 0.00
149, 28165.77, 24480.28, 8188.14, -7358.55, 60674.79, 16991.15, 27156.81, 23611.96, 0.00, 0.00, 0.00
150, 28168.14, 24487.54, 8184.38, -7359.60, 60669.74, 16970.54, 27090.07, 23470.29, 0.00, 0.00, 0.00
151, 28153.38, 24471.74, 8162.28, -7378.29, 60345.91, 16931.94, 27048.27, 23360.30, 0.00, 0.00, 0.00
152, 28138.52, 24445.68, 8148.17, -7390.54, 60306.05, 16930.66, 27101.71, 23451.25, 0.00, 0.00, 0.00
153, 28152.89, 24456.18, 8161.47, -7378.11, 60620.97, 16975.72, 27161.30, 23603.73, 0.00, 0.00, 0.00
154, 28171.85, 24474.89, 8166.17, -7373.21, 60739.43, 16968.24, 27098.43, 23517.92, 0.00, 0.00, 0.00
155, 28169.72, 24469.44, 8160.80, -7380.70, 60406.13, 16935.85, 27035.91, 23361.24, 0.00, 0.00, 0.00
156, 28155.91, 24453.05, 8157.40, -7390.25, 60275.41, 16928.09, 27089.04, 23427.51, 0.00, 0.00, 0.00
157, 28159.89, 24462.31, 8169.41, -7381.19, 60578.30, 16964.26, 27162.06, 23589.00, 0.12, 0.93, 0.34
158, 28174.37, 24480.43, 8178.12, -7370.76, 60796.95, 16966.11, 27114.14, 23544.95, 0.00, 0.00, 0.00
159, 28169.30, 24474.02, 8165.85, -7380.50, 60477.27, 16930.87, 27021.07, 23359.85, 0.00, 0.00, 0.00
160, 28149.16, 24460.03, 8149.36, -7393.04, 60285.80, 16919.55, 27050.26, 23402.88, 0.00, 0.00, 0.00
161, 28171.65, 24474.44, 8163.19, -7380.57, 60507.94, 16954.85, 27127.75, 23571.12, 0.00, 0.00, 0.00
162, 28192.70, 24487.63, 8172.18, -7367.56, 60771.80, 16970.20, 27116.04, 23569.96, 0.00, 0.00, 0.00
163, 28191.79, 24489.44, 8167.86, -7370.22, 60514.62, 16942.26, 27045.52, 23378.31, 0.00, 0.00, 0.00
164, 28170.66, 24467.96, 8155.21, -7383.14, 60259.81, 16919.51, 27070.44, 23371.90, 0.00, 0.00, 0.00
165, 28190.13, 24488.30, 8178.55, -7357.52, 60434.40, 16970.34, 27164.63, 23543.76, 0.00, 0.00, 0.00
166, 28202.83, 24505.67, 8188.29, -7345.72, 60754.16, 16994.23, 27151.80, 23591.51, 0.00, 0.00, 0.00
167, 28199.03, 24503.28, 8178.64, -7352.96, 60579.57, 16956.95, 27047.00, 23402.72, 0.12, 0.93, 0.34
168, 28185.84, 24487.18, 8166.52, -7360.92, 60306.86, 16934.87, 27053.63, 23371.74, 0.00, 0.00, 0.00
169, 28179.18, 24477.80, 8164.40, -7361.68, 60404.34, 16957.78, 27116.46, 23513.77, 0.00, 0.00, 0.00
170, 28191.94, 24496.17, 8175.44, -7350.17, 60772.34, 16986.63, 27136.31, 23611.46, 0.00, 0.00, 0.00
171, 28203.92, 24509.00, 8177.18, -7351.58, 60674.16, 16957.96, 27037.70, 23439.78, 0.00, 0.00, 0.00
172, 28186.76, 24488.82, 8156.93, -7374.33, 60347.05, 16922.97, 27027.82, 23349.35, 0.00, 0.00, 0.00
173, 28183.27, 24482.92, 8156.75, -7374.49, 60357.55, 16943.65, 27106.67, 23469.49, 0.00, 0.00, 0.00
174, 28188.59, 24487.36, 8168.13, -7363.31, 60697.88, 16984.24, 27149.23, 23603.08, 0.00, 0.00, 0.00
175, 28194.42, 24484.23, 8161.09, -7367.65, 60741.51, 16962.45, 27057.63, 23471.86, 0.00, 0.00, 0.00
176, 28188.86, 24480.17, 8150.81, -7376.92, 60424.92, 16932.16, 27030.54, 23355.14, 0.00, 0.00, 0.00
177, 28182.35, 24484.97, 8151.50, -7373.17, 60331.07, 16944.72, 27095.41, 23450.98, 0.13, 0.93, 0.33
178, 28195.50, 24494.07, 8167.24, -7356.38, 60632.14, 16992.67, 27165.62, 23619.94, 0.00, 0.00, 0.00
179, 28201.44, 24505.02, 8175.78, -7349.83, 60745.40, 16987.91, 27096.01, 23541.35, 0.00, 0.00, 0.00
180, 28197.28, 24498.00, 8167.15, -7360.61, 60409.12, 16952.66, 27039.11, 23389.98, 0.00, 0.00, 0.00
181, 28202.33, 24497.53, 8164.87, -7361.90, 60280.91, 16953.48, 27095.37, 23466.49, 0.00, 0.00, 0.00
182, 28214.74, 24507.30, 8174.12, -7353.59, 60555.25, 16988.96, 27152.03, 23630.78, 0.00, 0.00, 0.00
183, 28220.93, 24519.55, 8174.12, -7349.14, 60768.56, 16990.32, 27099.52, 23589.49, 0.00, 0.00, 0.00
184, 28225.09, 24523.17, 8169.12, -7353.10, 60470.16, 16954.74, 27043.22, 23406.95, 0.00, 0.00, 0.00
185, 28217.94, 24509.92, 8161.40, -7363.16, 60276.98, 16943.34, 27069.71, 23436.50, 0.00, 0.00, 0.00
186, 28225.11, 24515.04, 8167.86, -7355.87, 60491.39, 16977.85, 27149.08, 23594.19, 0.00, 0.00, 0.00
187, 28243.17, 24536.13, 8179.69, -7345.23, 60766.37, 16992.49, 27142.04, 23609.54, 0.12, 0.92, 0.33
188, 28244.51, 24541.14, 8167.17, -7359.60, 60526.91, 16951.25, 27028.24, 23414.75, 0.00, 0.00, 0.00
189, 28248.22, 24532.92, 8161.31, -7362.04, 60269.67, 16943.58, 27065.46, 23415.93, 0.00, 0.00, 0.00
190, 28248.76, 24528.58, 8163.44, -7359.02, 60408.87, 16968.39, 27144.54, 23562.89, 0.00, 0.00, 0.00
191, 28263.56, 24548.94, 8173.59, -7351.69, 60750.09, 16992.04, 27141.65, 23615.47, 0.00, 0.00, 0.00
192, 28264.16, 24548.96, 8166.46, -7359.33, 60581.36, 16950.69, 27041.07, 23416.49, 0.00, 0.00, 0.00
193, 28255.49, 24531.29, 8152.15, -7373.26, 60284.35, 16923.42, 27041.01, 23373.22, 0.00, 0.00, 0.00
194, 28251.49, 24528.74, 8149.45, -7374.33, 60343.29, 16942.87, 27116.91, 23505.18, 0.00, 0.00, 0.00
195, 28256.05, 24535.60, 8156.55, -7365.50, 60705.64, 16976.46, 27150.66, 23612.70, 0.00, 0.00, 0.00
196, 28266.22, 24548.05, 8151.50, -7368.54, 60651.10, 16950.74, 27055.62, 23450.91, 0.00, 0.00, 0.00
197, 28267.78, 24552.38, 8140.82, -7380.68, 60314.70, 16924.58, 27029.38, 23362.13, 0.12, 0.93, 0.33
198, 28269.37, 24545.25, 8139.37, -7386.36, 60283.30, 16937.21, 27086.47, 23471.81, 0.00, 0.00, 0.00
199, 28280.52, 24548.58, 8152.35, -7378.58, 60618.33, 16975.48, 27157.62, 23614.01, 0.00, 0.00, 0.00
200, 28290.40, 24560.48, 8153.16, -7379.12, 60668.45, 16956.68, 27087.01, 23492.82, 0.00, 0.00, 0.00
201, 28287.23, 24554.91, 8135.30, -7393.73, 60336.86, 16925.16, 27028.49, 23364.72, 0.00, 0.00, 0.00
202, 28282.29, 24546.21, 8124.30, -7400.42, 60249.06, 16928.03, 27074.71, 23452.68, 0.00, 0.00, 0.00
203, 28291.65, 24554.31, 8131.27, -7391.32, 60567.88, 16963.88, 27131.22, 23609.77, 0.00, 0.00, 0.00
204, 28314.63, 24581.40, 8144.71, -7375.11, 60706.06, 16963.95, 27081.44, 23534.55, 0.00, 0.00, 0.00
205, 28316.35, 24581.24, 8140.66, -7378.11, 60385.29, 16931.13, 27039.33, 23375.25, 0.00, 0.00, 0.00
206, 28316.11, 24575.05, 8136.33, -7375.27, 60236.41, 16934.33, 27086.87, 23427.51, 0.00, 0.00, 0.00
207, 28329.11, 24580.53, 8148.73, -7361.61, 60499.20, 16978.92, 27151.96, 23595.60, 0.12, 0.93, 0.33
208, 28340.69, 24594.47, 8156.06, -7355.20, 60732.82, 16981.69, 27097.44, 23574.63, 0.00, 0.00, 0.00
209, 28335.84, 24596.26, 8144.39, -7369.24, 60457.36, 16941.91, 27031.42, 23390.63, 0.00, 0.00, 0.00
210, 28329.72, 24590.07, 8135.54, -7383.29, 60236.41, 16924.88, 27075.88, 23403.08, 0.00, 0.00, 0.00
211, 28341.01, 24596.11, 8142.63, -7377.24, 60407.80, 16957.37, 27150.75, 23561.11, 0.00, 0.00, 0.00
212, 28357.79, 24607.73, 8150.36, -7370.85, 60720.21, 16977.22, 27147.82, 23592.11, 0.00, 0.00, 0.00
213, 28367.80, 24612.85, 8142.29, -7376.75, 60501.83, 16936.68, 27029.72, 23392.22, 0.00, 0.00, 0.00
214, 28367.11, 24612.47, 8133.64, -7383.14, 60228.72, 16920.83, 27032.29, 23381.89, 0.00, 0.00, 0.00
215, 28365.32, 24614.28, 8137.76, -7379.81, 60357.87, 16946.38, 27120.09, 23530.91, 0.00, 0.00, 0.00
216, 28381.42, 24630.82, 8154.83, -7362.37, 60684.29, 16977.78, 27147.78, 23609.90, 0.00, 0.00, 0.00
217, 28385.69, 24636.16, 8146.85, -7369.26, 60547.10, 16941.15, 27042.44, 23428.90, 0.12, 0.93, 0.33
218, 28379.25, 24626.46, 8134.49, -7380.14, 60252.99, 16913.50, 27020.80, 23367.27, 0.00, 0.00, 0.00
219, 28377.44, 24621.47, 8138.78, -7376.66, 60291.82, 16933.37, 27101.96, 23497.72, 0.00, 0.00, 0.00
220, 28386.29, 24626.12, 8152.64, -7364.09, 60650.74, 16968.73, 27162.13, 23617.17, 0.00, 0.00, 0.00
221, 28395.92, 24642.35, 8155.70, -7361.57, 60593.81, 16946.96, 27067.54, 23454.38, 0.00, 0.00, 0.00
222, 28384.86, 24631.89, 8140.13, -7375.87, 60281.11, 16913.81, 27035.73, 23359.32, 0.00, 0.00, 0.00
223, 28379.70, 24622.86, 8140.84, -7380.08, 60269.64, 16923.38, 27094.13, 23470.76, 0.00, 0.00, 0.00
224, 28393.67, 24639.09, 8157.54, -7365.26, 60609.26, 16964.97, 27149.46, 23612.96, 0.00, 0.00, 0.00
225, 28406.56, 24650.35, 8164.78, -7356.88, 60678.32, 16954.83, 27068.05, 23498.01, 0.00, 0.00, 0.00
226, 28404.51, 24648.30, 8154.21, -7362.22, 60331.67, 16924.00, 27005.22, 23355.65, 0.00, 0.00, 0.00
227, 28396.04, 24636.31, 8144.55, -7368.39, 60231.98, 16923.58, 27068.54, 23438.22, 0.12, 0.93, 0.33
228, 28406.74, 24648.68, 8158.79, -7351.22, 60540.77, 16966.85, 27144.58, 23600.67, 0.00, 0.00, 0.00
229, 28424.29, 24668.03, 8172.78, -7335.04, 60689.54, 16970.05, 27098.56, 23538.17, 0.00, 0.00, 0.00
230, 28420.55, 24663.16, 8164.38, -7343.06, 60385.94, 16936.27, 27048.61, 23376.50, 0.00, 0.00, 0.00
231, 28410.16, 24650.42, 8148.69, -7354.48, 60221.07, 16927.51, 27062.46, 23420.04, 0.00, 0.00, 0.00
232, 28414.45, 24651.67, 8155.32, -7347.89, 60468.39, 16963.39, 27150.24, 23576.73, 0.00, 0.00, 0.00
233, 28432.38, 24677.24, 8171.26, -7334.75, 60717.75, 16980.60, 27155.65, 23556.55, 0.00, 0.00, 0.00
234, 28430.90, 24679.99, 8157.36, -7346.17, 60446.58, 16940.03, 27064.25, 23357.55, 0.00, 0.00, 0.00
235, 28423.06, 24668.03, 8140.80, -7357.55, 60229.03, 16925.54, 27079.65, 23366.22, 0.00, 0.00, 0.00
236, 28426.01, 24668.14, 8145.18, -7350.01, 60411.46, 16959.70, 27145.23, 23525.93, 0.12, 0.93, 0.34
237, 28443.29, 24682.11, 8158.03, -7335.17, 60704.07, 16979.37, 27139.91, 23559.77, 0.00, 0.00, 0.00
238, 28445.79, 24685.80, 8149.40, -7341.01, 60501.03, 16943.63, 27040.22, 23372.39, 0.00, 0.00, 0.00
239, 28430.70, 24675.50, 8137.58, -7356.05, 60241.95, 16920.27, 27059.42, 23353.06, 0.00, 0.00, 0.00
240, 28427.73, 24669.75, 8137.42, -7350.84, 60343.41, 16945.84, 27139.17, 23498.48, 0.00, 0.00, 0.00
241, 28438.08, 24677.87, 8146.74, -7337.23, 60698.80, 16974.92, 27164.39, 23585.25, 0.00, 0.00, 0.00
242, 28438.71, 24686.16, 8145.78, -7343.02, 60589.86, 16945.71, 27060.90, 23404.62, 0.00, 0.00, 0.00
243, 28426.90, 24671.16, 8137.91, -7353.03, 60272.84, 16920.18, 27037.74, 23338.33, 0.00, 0.00, 0.00
244, 28430.59, 24665.46, 8144.48, -7346.91, 60296.38, 16939.36, 27101.71, 23461.31, 0.00, 0.00, 0.00
245, 28446.35, 24685.69, 8167.10, -7327.53, 60641.60, 16983.06, 27183.10, 23592.06, 0.00, 0.00, 0.00
246, 28452.36, 24693.69, 8166.63, -7327.06, 60625.66, 16954.98, 27090.85, 23440.25, 0.12, 0.92, 0.33
247, 28439.04, 24680.15, 8147.12, -7344.25, 60305.30, 16915.93, 27036.22, 23329.83, 0.00, 0.00, 0.00
248, 28434.66, 24670.09, 8143.84, -7344.27, 60271.81, 16929.72, 27109.45, 23433.97, 0.00, 0.00, 0.00
249, 28446.33, 24678.65, 8157.38, -7331.73, 60600.98, 16973.91, 27171.47, 23581.92, 0.00, 0.00, 0.00
250, 28455.69, 24700.78, 8155.55, -7328.04, 60704.61, 16961.35, 27100.68, 23476.17, 0.00, 0.00, 0.00
251, 28454.89, 24697.29, 8145.24, -7336.54, 60359.77, 16925.14, 27012.91, 23311.77, 0.00, 0.00, 0.00
252, 28447.87, 24678.76, 8144.13, -7339.60, 60245.82, 16924.58, 27075.18, 23379.59, 0.00, 0.00, 0.00
253, 28455.31, 24679.83, 8155.61, -7328.27, 60541.84, 16965.38, 27155.78, 23547.27, 0.00, 0.00, 0.00
254, 28465.73, 24692.71, 8163.71, -7323.35, 60718.80, 16968.66, 27104.60, 23498.86, 0.00, 0.00, 0.00
255, 28463.25, 24698.07, 8154.01, -7333.74, 60414.66, 16929.28, 27060.61, 23324.92, 0.00, 0.00, 0.00
0, 28454.75, 24688.04, 8144.42, -7341.32, 60242.11, 16924.36, 27101.51, 23374.11, 0.12, 0.92, 0.34
1, 28458.24, 24686.92, 8149.69, -7332.33, 60468.75, 16964.44, 27174.76, 23532.90, 0.00, 0.00, 0.00
2, 28465.59, 24698.45, 8153.04, -7328.13, 60744.64, 16974.09, 27154.55, 23522.77, 0.00, 0.00, 0.00
3, 28468.59, 24701.78, 8146.96, -7333.92, 60476.26, 16941.55, 27063.63, 23327.26, 0.00, 0.00, 0.00
4, 28458.40, 24694.97, 8138.07, -7341.92, 60226.06, 16929.90, 27084.41, 23342.95, 0.00, 0.00, 0.00
5, 28458.31, 24693.00, 8141.91, -7336.00, 60382.39, 16956.10, 27156.01, 23496.67, 0.00, 0.00, 0.00
6, 28473.21, 24708.20, 8153.94, -7325.05, 60685.72, 16980.93, 27152.07, 23549.82, 0.00, 0.00, 0.00
7, 28474.13, 24711.15, 8146.99, -7334.01, 60488.98, 16940.34, 27053.10, 23353.95, 0.00, 0.00, 0.00
8, 28465.13, 24700.33, 8134.94, -7343.67, 60200.98, 16913.59, 27055.42, 23315.51, 0.00, 0.00, 0.00
9, 28464.34, 24702.57, 8132.19, -7340.74, 60290.92, 16934.57, 27136.54, 23456.79, 0.00, 0.00, 0.00
10, 28476.30, 24713.00, 8145.11, -7328.67, 60655.52, 16960.03, 27173.02, 23556.12, 0.12, 0.92, 0.34
11, 28485.71, 24712.83, 8146.56, -7325.87, 60555.16, 16932.65, 27048.94, 23383.72, 0.00, 0.00, 0.00
12, 28478.58, 24697.63, 8130.65, -7338.12, 60229.14, 16905.74, 27039.29, 23305.07, 0.00, 0.00, 0.00
13, 28482.13, 24691.14, 8126.56, -7338.28, 60247.70, 16918.48, 27124.47, 23424.76, 0.00, 0.00, 0.00
14, 28504.08, 24707.71, 8145.38, -7315.57, 60598.13, 16961.42, 27179.97, 23557.49, 0.00, 0.00, 0.00
15, 28516.69, 24720.00, 8148.48, -7311.17, 60603.15, 16942.78, 27093.17, 23415.75, 0.00, 0.00, 0.00
16, 28515.82, 24718.08, 8138.43, -7320.46, 60262.22, 16912.51, 27050.71, 23298.88, 0.00, 0.00, 0.00
17, 28518.88, 24717.43, 8140.15, -7317.92, 60180.73, 16924.74, 27123.30, 23401.22, 0.00, 0.00, 0.00
18, 28524.02, 24708.33, 8150.18, -7311.34, 60520.45, 16965.98, 27189.78, 23561.84, 0.00, 0.00, 0.00
19, 28540.79, 24721.10, 8159.30, -7310.79, 60643.88, 16959.18, 27105.02, 23464.53, 0.00, 0.00, 0.00
20, 28537.66, 24713.47, 8150.76, -7330.01, 60318.62, 16920.70, 27038.08, 23309.31, 0.12, 0.92, 0.34
21, 28529.03, 24700.71, 8146.07, -7345.39, 60187.90, 16916.34, 27089.55, 23373.49, 0.00, 0.00, 0.00
22, 28539.33, 24712.60, 8166.05, -7333.81, 60457.18, 16963.95, 27196.66, 23542.06, 0.00, 0.00, 0.00
23, 28548.25, 24726.66, 8177.23, -7328.15, 60665.52, 16964.46, 27158.35, 23505.21, 0.00, 0.00, 0.00
24, 28543.04, 24724.67, 8166.23, -7344.45, 60379.08, 16926.66, 27064.79, 23323.51, 0.00, 0.00, 0.00
25, 28529.92, 24708.62, 8159.46, -7357.88, 60188.93, 16918.79, 27091.68, 23357.21, 0.00, 0.00, 0.00
26, 28529.18, 24708.82, 8169.54, -7355.58, 60393.59, 16956.17, 27159.56, 23523.89, 0.00, 0.00, 0.00
27, 28537.43, 24718.77, 8183.89, -7355.15, 60673.88, 16973.38, 27135.04, 23546.67, 0.00, 0.00, 0.00
28, 28532.07, 24708.80, 8174.77, -7371.43, 60428.34, 16934.73, 27031.62, 23357.06, 0.00, 0.00, 0.00
29, 28524.04, 24695.30, 8166.25, -7383.32, 60157.93, 16924.49, 27058.26, 23359.32, 0.00, 0.00, 0.00
30, 28522.79, 24698.52, 8172.49, -7384.19, 60302.99, 16953.08, 27141.14, 23515.42, 0.11, 0.93, 0.34
31, 28537.32, 24720.29, 8192.61, -7374.87, 60617.88, 16979.57, 27148.74, 23576.13, 0.00, 0.00, 0.00
32, 28542.57, 24721.05, 8192.43, -7382.02, 60464.80, 16945.42, 27040.42, 23386.34, 0.00, 0.00, 0.00
33, 28537.23, 24709.70, 8181.95, -7395.79, 60185.24, 16921.83, 27015.99, 23342.62, 0.00, 0.00, 0.00
34, 28540.52, 24712.49, 8189.01, -7391.10, 60251.50, 16949.97, 27115.26, 23485.85, 0.00, 0.00, 0.00
35, 28555.34, 24726.86, 8207.45, -7375.99, 60593.32, 16990.30, 27173.73, 23599.33, 0.00, 0.00, 0.00
36, 28563.36, 24739.02, 8208.07, -7374.89, 60513.84, 16972.42, 27068.88, 23441.50, 0.00, 0.00, 0.00
37, 28548.29, 24728.00, 8189.41, -7398.11, 60207.86, 16939.36, 27034.72, 23359.14, 0.00, 0.00, 0.00
38, 28541.59, 24722.75, 8189.10, -7404.55, 60207.13, 16948.68, 27100.64, 23471.30, 0.00, 0.00, 0.00
39, 28553.21, 24736.41, 8203.56, -7391.14, 60558.65, 16992.00, 27145.92, 23610.91, 0.00, 0.00, 0.00
40, 28563.40, 24750.85, 8212.52, -7386.42, 60595.60, 16981.51, 27066.73, 23482.25, 0.11, 0.93, 0.33
41, 28556.28, 24745.82, 8199.11, -7401.76, 60261.31, 16951.99, 27012.55, 23359.40, 0.00, 0.00, 0.00
42, 28550.40, 24740.94, 8194.01, -7406.52, 60182.47, 16954.87, 27057.93, 23452.08, 0.00, 0.00, 0.00
43, 28559.38, 24749.19, 8211.99, -7391.86, 60481.34, 17000.13, 27160.45, 23619.96, 0.00, 0.00, 0.00
44, 28567.29, 24759.83, 8217.46, -7391.59, 60635.54, 16994.54, 27104.60, 23544.19, 0.00, 0.00, 0.00
45, 28562.71, 24748.61, 8206.98, -7406.45, 60317.50, 16962.04, 27008.60, 23372.97, 0.00, 0.00, 0.00
46, 28550.87, 24734.15, 8199.74, -7418.59, 60179.57, 16959.50, 27055.87, 23435.31, 0.00, 0.00, 0.00
47, 28549.41, 24728.67, 8209.64, -7412.80, 60456.01, 16995.15, 27174.27, 23605.54, 0.00, 0.00, 0.00
48, 28562.31, 24745.04, 8218.24, -7403.01, 60680.27, 17001.36, 27145.99, 23577.89, 0.00, 0.00, 0.00
49, 28559.00, 24741.70, 8204.12, -7410.41, 60390.61, 16970.85, 27050.19, 23393.49, 0.00, 0.00, 0.00
50, 28546.28, 24727.98, 8188.67, -7418.36, 60190.09, 16960.08, 27072.28, 23415.60, 0.11, 0.93, 0.34
51, 28550.84, 24735.38, 8195.69, -7405.27, 60375.17, 16998.28, 27155.16, 23586.57, 0.00, 0.00, 0.00
52, 28559.81, 24750.51, 8201.86, -7395.63, 60672.71, 17017.43, 27148.21, 23623.36, 0.00, 0.00, 0.00
53, 28560.34, 24750.44, 8196.32, -7400.91, 60452.55, 16983.50, 27037.96, 23427.06, 0.00, 0.00, 0.00
54, 28551.74, 24738.57, 8187.58, -7410.07, 60172.14, 16967.10, 27034.97, 23399.44, 0.00, 0.00, 0.00
55, 28547.51, 24736.12, 8191.87, -7404.93, 60298.28, 16996.49, 27150.35, 23550.78, 0.00, 0.00, 0.00
56, 28563.38, 24752.81, 8209.44, -7383.85, 60631.18, 17031.74, 27168.84, 23632.10, 0.00, 0.00, 0.00
57, 28573.26, 24763.54, 8208.95, -7382.74, 60488.04, 17003.29, 27061.84, 23446.15, 0.00, 0.00, 0.00
58, 28559.40, 24746.24, 8192.32, -7400.22, 60196.42, 16977.09, 27053.01, 23386.27, 0.00, 0.00, 0.00
59, 28554.29, 24736.47, 8193.77, -7397.69, 60254.02, 16999.31, 27121.65, 23527.69, 0.11, 0.94, 0.33
60, 28569.08, 24754.36, 8210.44, -7379.54, 60600.67, 17035.65, 27179.68, 23652.01, 0.00, 0.00, 0.00
61, 28577.22, 24760.46, 8213.42, -7377.51, 60550.38, 17005.86, 27086.09, 23490.81, 0.00, 0.00, 0.00
62, 28569.84, 24751.61, 8201.10, -7389.06, 60223.15, 16973.87, 27048.07, 23394.45, 0.00, 0.00, 0.00
63, 28569.24, 24750.55, 8196.67, -7389.04, 60211.60, 16986.50, 27112.31, 23509.88, 0.00, 0.00, 0.00
64, 28577.22, 24760.59, 8208.25, -7376.48, 60551.95, 17019.94, 27161.46, 23648.26, 0.00, 0.00, 0.00
65, 28586.34, 24771.28, 8212.23, -7375.43, 60609.93, 16997.09, 27093.73, 23524.85, 0.00, 0.00, 0.00
66, 28585.91, 24768.50, 8203.22, -7384.01, 60263.21, 16968.24, 27041.27, 23385.58, 0.00, 0.00, 0.00
67, 28577.91, 24750.96, 8197.86, -7389.51, 60169.08, 16971.16, 27095.32, 23479.57, 0.00, 0.00, 0.00
68, 28579.25, 24750.29, 8203.60, -7386.11, 60474.32, 17004.92, 27164.92, 23630.69, 0.00, 0.00, 0.00
69, 28587.46, 24768.19, 8213.73, -7376.41, 60627.72, 17009.88, 27105.65, 23562.04, 0.12, 0.93, 0.34
70, 28580.33, 24759.21, 8203.04, -7385.08, 60317.23, 16983.97, 27030.99, 23399.01, 0.00, 0.00, 0.00
71, 28565.95, 24743.45, 8189.97, -7397.44, 60170.13, 16974.03, 27078.00, 23456.32, 0.00, 0.00, 0.00
72, 28571.45, 24745.68, 8202.22, -7380.26, 60407.80, 17011.11, 27184.21, 23623.11, 0.00, 0.00, 0.00
73, 28580.26, 24753.46, 8210.71, -7367.98, 60662.36, 17020.76, 27162.04, 23625.19, 0.00, 0.00, 0.00
74, 28577.40, 24750.09, 8204.50, -7376.46, 60408.25, 16981.80, 27066.73, 23435.87, 0.00, 0.00, 0.00
75, 28572.35, 24739.63, 8197.59, -7382.69, 60171.03, 16972.84, 27094.47, 23447.25, 0.00, 0.00, 0.00
76, 28569.91, 24735.56, 8197.97, -7380.23, 60336.86, 17006.75, 27159.96, 23607.76, 0.00, 0.00, 0.00
77, 28578.67, 24745.19, 8211.58, -7369.46, 60643.23, 17022.37, 27158.11, 23657.06, 0.00, 0.00, 0.00
78, 28581.09, 24751.29, 8204.72, -7373.15, 60430.69, 16984.29, 27044.69, 23467.05, 0.00, 0.00, 0.00
79, 28569.39, 24739.20, 8187.35, -7382.92, 60171.74, 16962.60, 27040.33, 23449.50, 0.11, 0.93, 0.33
80, 28570.07, 24739.07, 8190.71, -7371.81, 60284.42, 16987.62, 27132.18, 23599.73, 0.00, 0.00, 0.00
81, 28582.43, 24753.08, 8202.60, -7354.91, 60624.37, 17019.49, 27173.60, 23699.91, 0.00, 0.00, 0.00
82, 28584.35, 24758.42, 8193.34, -7358.02, 60508.65, 16985.00, 27066.53, 23526.78, 0.00, 0.00, 0.00
83, 28574.89, 24749.57, 8178.35, -7368.19, 60189.60, 16956.03, 27053.90, 23460.48, 0.00, 0.00, 0.00
84, 28575.47, 24749.97, 8180.72, -7366.42, 60214.21, 16969.49, 27114.95, 23592.91, 0.00, 0.00, 0.00
85, 28590.14, 24765.87, 8200.32, -7343.58, 60561.29, 17012.27, 27156.52, 23728.79, 0.00, 0.00, 0.00
86, 28592.89, 24765.87, 8199.09, -7346.73, 60553.82, 16984.67, 27077.66, 23579.23, 0.00, 0.00, 0.00
87, 28586.58, 24760.46, 8188.81, -7358.15, 60215.46, 16956.57, 27055.73, 23465.11, 0.00, 0.00, 0.00
88, 28581.89, 24757.66, 8182.28, -7362.75, 60176.73, 16965.67, 27115.44, 23571.59, 0.00, 0.00, 0.00
89, 28586.94, 24765.38, 8188.81, -7354.08, 60507.06, 17002.86, 27173.19, 23718.11, 0.11, 0.93, 0.34
90, 28597.22, 24775.14, 8192.21, -7351.18, 60601.03, 16987.53, 27107.55, 23601.59, 0.00, 0.00, 0.00
91, 28591.28, 24766.94, 8182.33, -7364.54, 60257.24, 16952.52, 27036.24, 23445.46, 0.00, 0.00, 0.00
92, 28580.08, 24754.47, 8175.31, -7375.07, 60132.29, 16950.62, 27075.18, 23519.31, 0.00, 0.00, 0.00
93, 28583.10, 24762.60, 8187.71, -7362.93, 60404.38, 16991.73, 27135.53, 23690.55, 0.00, 0.00, 0.00
94, 28593.85, 24779.75, 8197.70, -7353.54, 60587.42, 16993.74, 27100.57, 23645.82, 0.00, 0.00, 0.00
95, 28588.73, 24774.58, 8189.21, -7361.01, 60280.64, 16956.61, 27036.74, 23471.10, 0.00, 0.00, 0.00
96, 28578.47, 24763.79, 8180.47, -7366.44, 60116.98, 16952.03, 27087.38, 23521.81, 0.00, 0.00, 0.00
97, 28580.28, 24764.93, 8190.77, -7355.38, 60358.27, 16992.94, 27168.79, 23701.90, 0.00, 0.00, 0.00
98, 28589.87, 24777.13, 8202.64, -7345.57, 60623.02, 17005.68, 27130.28, 23705.48, 0.00, 0.00, 0.00
99, 28587.59, 24779.57, 8197.30, -7354.19, 60368.48, 16971.01, 27047.96, 23515.11, 0.11, 0.93, 0.34
100, 28578.13, 24770.11, 8189.77, -7364.68, 60141.64, 16951.85, 27080.01, 23524.45, 0.00, 0.00, 0.00
101, 28578.85, 24770.69, 8199.58, -7358.35, 60297.94, 16982.41, 27130.52, 23691.48, 0.00, 0.00, 0.00
102, 28586.43, 24777.15, 8210.33, -7351.22, 60630.29, 17002.32, 27130.39, 23758.56, 0.00, 0.00, 0.00
103, 28589.82, 24782.81, 8208.57, -7352.09, 60447.18, 16968.33, 27052.18, 23570.21, 0.00, 0.00, 0.00
104, 28580.84, 24777.24, 8196.54, -7361.06, 60159.90, 16948.30, 27063.58, 23538.91, 0.00, 0.00, 0.00
105, 28578.83, 24773.55, 8199.63, -7355.85, 60241.39, 16974.03, 27132.67, 23679.30, 0.00, 0.00, 0.00
106, 28587.28, 24782.32, 8215.25, -7341.50, 60588.07, 17006.68, 27150.06, 23776.18, 0.00, 0.00, 0.00
107, 28589.78, 24791.37, 8214.65, -7341.63, 60497.63, 16979.10, 27076.72, 23594.46, 0.00, 0.00, 0.00
108, 28581.85, 24785.60, 8203.02, -7351.02, 60176.62, 16954.45, 27056.85, 23507.13, 0.00, 0.00, 0.00
109, 28577.91, 24780.13, 8208.92, -7350.46, 60183.32, 16972.19, 27125.54, 23632.83, 0.12, 0.92, 0.33
110, 28583.03, 24785.78, 8221.40, -7343.75, 60543.79, 17002.61, 27170.36, 23770.10, 0.00, 0.00, 0.00
111, 28599.14, 24794.74, 8226.76, -7340.18, 60544.91, 16985.22, 27082.60, 23628.88, 0.00, 0.00, 0.00
112, 28590.09, 24784.69, 8215.18, -7353.72, 60200.44, 16949.86, 27031.89, 23507.57, 0.00, 0.00, 0.00
113, 28578.20, 24778.05, 8201.41, -7364.30, 60144.59, 16947.63, 27076.30, 23604.29, 0.00, 0.00, 0.00
114, 28582.70, 24785.98, 8206.91, -7355.67, 60469.31, 16985.43, 27137.23, 23752.73, 0.00, 0.00, 0.00
115, 28590.74, 24794.23, 8210.15, -7349.39, 60589.63, 16979.81, 27115.66, 23664.10, 0.00, 0.00, 0.00
116, 28589.33, 24789.89, 8201.17, -7353.92, 60246.96, 16949.86, 27037.79, 23504.83, 0.00, 0.00, 0.00
117, 28576.75, 24777.49, 8198.80, -7357.93, 60123.24, 16950.96, 27136.43, 23585.11, 0.00, 0.00, 0.00
118, 28582.16, 24782.88, 8210.71, -7346.48, 60402.95, 16988.96, 27209.45, 23753.64, 0.00, 0.00, 0.00
119, 28591.66, 24792.40, 8219.88, -7337.79, 60615.25, 16991.84, 27157.66, 23716.27, 0.12, 0.92, 0.34
120, 28584.71, 24786.41, 8209.53, -7348.29, 60308.80, 16954.60, 27067.74, 23539.38, 0.00, 0.00, 0.00
121, 28571.52, 24767.99, 8194.01, -7365.61, 60125.43, 16936.97, 27083.36, 23573.22, 0.00, 0.00, 0.00
122, 28576.06, 24772.59, 8202.62, -7357.26, 60323.20, 16970.52, 27156.01, 23734.27, 0.00, 0.00, 0.00
123, 28587.12, 24782.85, 8211.70, -7348.81, 60587.91, 16986.97, 27157.59, 23752.35, 0.00, 0.00, 0.00
124, 28583.43, 24780.06, 8197.81, -7358.64, 60350.04, 16954.02, 27059.15, 23556.46, 0.00, 0.00, 0.00
125, 28571.96, 24773.60, 8184.02, -7365.55, 60099.10, 16936.77, 27072.34, 23551.36, 0.00, 0.00, 0.00
126, 28567.61, 24763.59, 8186.73, -7361.37, 60261.31, 16960.75, 27145.72, 23712.88, 0.00, 0.00, 0.00
127, 28580.59, 24772.33, 8202.44, -7343.87, 60602.28, 16989.29, 27165.46, 23787.15, 0.00, 0.00, 0.00
128, 28585.15, 24778.38, 8200.09, -7345.32, 60429.84, 16951.16, 27052.23, 23593.32, 0.00, 0.00, 0.00
129, 28577.75, 24766.16, 8188.23, -7352.81, 60123.06, 16928.45, 27042.95, 23549.37, 0.12, 0.93, 0.33
130, 28574.67, 24759.83, 8189.52, -7351.29, 60196.53, 16949.75, 27140.25, 23696.58, 0.00, 0.00, 0.00
131, 28584.88, 24773.60, 8204.61, -7339.11, 60556.59, 16983.12, 27172.81, 23808.07, 0.00, 0.00, 0.00
132, 28586.18, 24784.84, 8201.15, -7344.25, 60492.13, 16951.94, 27088.17, 23635.83, 0.00, 0.00, 0.00
133, 28575.07, 24765.46, 8180.72, -7363.25, 60164.48, 16920.52, 27041.90, 23537.01, 0.00, 0.00, 0.00
134, 28569.48, 24750.67, 8170.23, -7367.54, 60152.39, 16927.94, 27135.20, 23656.55, 0.00, 0.00, 0.00
135, 28580.30, 24768.08, 8179.11, -7350.80, 60486.34, 16970.81, 27191.19, 23802.82, 0.00, 0.00, 0.00
136, 28588.01, 24781.80, 8174.68, -7346.93, 60526.40, 16953.82, 27069.95, 23665.65, 0.00, 0.00, 0.00
137, 28586.27, 24776.57, 8162.19, -7352.43, 60198.52, 16926.08, 27051.04, 23539.49, 0.00, 0.00, 0.00
138, 28582.31, 24769.71, 8155.12, -7352.18, 60135.55, 16934.20, 27139.38, 23636.81, 0.00, 0.00, 0.00
139, 28585.67, 24771.92, 8167.19, -7341.45, 60456.62, 16970.03, 27197.63, 23791.38, 0.12, 0.93, 0.33
140, 28595.03, 24783.97, 8177.43, -7334.48, 60584.38, 16966.49, 27128.51, 23707.20, 0.00, 0.00, 0.00
141, 28588.53, 24774.05, 8167.51, -7346.30, 60251.50, 16928.34, 27056.63, 23533.84, 0.00, 0.00, 0.00
142, 28575.38, 24749.24, 8157.11, -7357.79, 60101.69, 16923.35, 27106.88, 23588.44, 0.00, 0.00, 0.00
143, 28578.52, 24753.86, 8165.00, -7347.00, 60368.89, 16965.13, 27181.71, 23755.95, 0.00, 0.00, 0.00
144, 28594.90, 24776.48, 8175.62, -7333.45, 60595.75, 16977.36, 27140.92, 23731.54, 0.00, 0.00, 0.00
145, 28590.94, 24775.37, 8160.71, -7343.15, 60296.76, 16939.36, 27044.65, 23538.13, 0.00, 0.00, 0.00
146, 28578.02, 24762.00, 8147.48, -7351.76, 60096.02, 16926.69, 27088.28, 23568.55, 0.00, 0.00, 0.00
147, 28579.79, 24765.02, 8151.99, -7341.54, 60311.73, 16959.18, 27188.35, 23742.67, 0.00, 0.00, 0.00
148, 28590.72, 24772.71, 8161.54, -7329.05, 60590.73, 16975.57, 27170.18, 23761.45, 0.12, 0.92, 0.33
149, 28586.54, 24767.63, 8152.53, -7330.72, 60369.00, 16945.86, 27078.00, 23567.63, 0.00, 0.00, 0.00
150, 28569.60, 24748.25, 8135.45, -7342.37, 60116.98, 16924.94, 27089.96, 23554.78, 0.00, 0.00, 0.00
151, 28564.37, 24744.63, 8138.18, -7337.65, 60251.65, 16949.64, 27164.41, 23710.93, 0.00, 0.00, 0.00
152, 28576.19, 24757.42, 8155.88, -7322.81, 60573.96, 16976.82, 27183.77, 23789.36, 0.00, 0.00, 0.00
153, 28578.13, 24754.13, 8147.26, -7332.22, 60426.66, 16940.03, 27064.56, 23593.72, 0.00, 0.00, 0.00
154, 28566.38, 24738.89, 8130.07, -7349.57, 60134.93, 16914.41, 27076.77, 23540.16, 0.00, 0.00, 0.00
155, 28568.26, 24738.87, 8133.78, -7346.39, 60190.18, 16940.23, 27150.08, 23684.78, 0.00, 0.00, 0.00
156, 28581.60, 24756.50, 8151.46, -7332.20, 60534.58, 16976.17, 27185.73, 23808.99, 0.00, 0.00, 0.00
157, 28589.38, 24764.12, 8152.06, -7331.01, 60475.05, 16949.42, 27098.45, 23643.05, 0.00, 0.00, 0.00
158, 28582.83, 24753.80, 8141.40, -7338.17, 60148.52, 16922.15, 27085.69, 23542.71, 0.12, 0.92, 0.33
159, 28578.11, 24751.52, 8136.77, -7336.74, 60125.81, 16932.52, 27143.91, 23659.59, 0.00, 0.00, 0.00
160, 28585.87, 24756.52, 8148.84, -7321.36, 60452.95, 16969.87, 27213.90, 23807.80, 0.00, 0.00, 0.00
161, 28591.84, 24764.97, 8148.22, -7314.09, 60509.86, 16958.47, 27122.97, 23673.87, 0.00, 0.00, 0.00
162, 28583.86, 24758.00, 8135.19, -7320.51, 60183.16, 16928.92, 27073.79, 23521.41, 0.00, 0.00, 0.00
163, 28581.06, 24752.41, 8130.36, -7321.72, 60077.24, 16933.10, 27122.01, 23602.28, 0.00, 0.00, 0.00
164, 28586.72, 24756.39, 8141.38, -7312.15, 60376.44, 16975.77, 27204.38, 23775.01, 0.00, 0.00, 0.00
165, 28600.75, 24772.93, 8150.70, -7302.94, 60538.42, 16975.14, 27158.40, 23712.36, 0.00, 0.00, 0.00
166, 28593.92, 24762.74, 8136.62, -7319.55, 60217.07, 16931.71, 27072.74, 23530.64, 0.00, 0.00, 0.00
167, 28585.04, 24748.05, 8125.80, -7329.38, 60065.13, 16926.33, 27107.70, 23585.27, 0.00, 0.00, 0.00
168, 28592.71, 24760.68, 8136.37, -7320.93, 60299.59, 16966.00, 27185.44, 23759.01, 0.11, 0.93, 0.34
169, 28600.53, 24771.74, 8144.86, -7317.11, 60538.91, 16968.17, 27161.08, 23744.50, 0.00, 0.00, 0.00
170, 28595.21, 24754.58, 8130.98, -7327.62, 60276.26, 16925.68, 27059.00, 23551.81, 0.00, 0.00, 0.00
171, 28585.53, 24738.13, 8119.36, -7337.32, 60047.42, 16912.89, 27073.24, 23557.29, 0.00, 0.00, 0.00
172, 28581.46, 24732.76, 8124.26, -7333.50, 60215.82, 16942.94, 27157.19, 23720.88, 0.00, 0.00, 0.00
173, 28590.29, 24742.96, 8132.53, -7321.54, 60526.91, 16956.77, 27174.65, 23761.54, 0.00, 0.00, 0.00
174, 28596.84, 24750.58, 8130.69, -7316.31, 60309.61, 16928.38, 27068.23, 23567.37, 0.00, 0.00, 0.00
175, 28582.05, 24737.10, 8115.83, -7325.85, 60049.23, 16906.43, 27069.01, 23548.43, 0.00, 0.00, 0.00
176, 28574.98, 24731.49, 8118.35, -7322.95, 60167.30, 16927.06, 27157.93, 23701.41, 0.00, 0.00, 0.00
177, 28586.63, 24743.78, 8130.92, -7309.09, 60504.52, 16957.84, 27188.53, 23794.73, 0.00, 0.00, 0.00
178, 28594.03, 24751.16, 8128.61, -7310.00, 60375.12, 16932.63, 27093.69, 23613.05, 0.11, 0.93, 0.34
179, 28583.05, 24737.66, 8113.84, -7323.39, 60072.08, 16905.21, 27088.77, 23546.65, 0.00, 0.00, 0.00
180, 28577.58, 24732.27, 8109.57, -7326.01, 60115.26, 16915.67, 27163.87, 23673.80, 0.00, 0.00, 0.00
181, 28591.10, 24751.63, 8125.40, -7313.71, 60459.86, 16951.74, 27191.30, 23803.71, 0.00, 0.00, 0.00
182, 28605.05, 24765.93, 8131.97, -7309.29, 60415.45, 16933.61, 27096.88, 23653.35, 0.00, 0.00, 0.00
183, 28602.16, 24754.76, 8122.13, -7319.30, 60078.09, 16909.00, 27074.62, 23552.88, 0.00, 0.00, 0.00
184, 28591.66, 24742.96, 8112.54, -7324.80, 60053.88, 16916.16, 27113.71, 23654.69, 0.00, 0.00, 0.00
185, 28596.96, 24748.99, 8130.92, -7309.11, 60382.97, 16954.98, 27205.51, 23800.70, 0.00, 0.00, 0.00
186, 28609.83, 24765.17, 8141.78, -7297.60, 60460.21, 16946.64, 27151.80, 23684.31, 0.00, 0.00, 0.00
187, 28605.27, 24753.73, 8129.62, -7310.05, 60132.98, 16910.10, 27069.39, 23527.40, 0.00, 0.00, 0.00
188, 28592.08, 24740.21, 8117.97, -7320.80, 60034.23, 16901.85, 27109.96, 23598.99, 0.12, 0.92, 0.34
189, 28599.30, 24751.49, 8129.24, -7310.54, 60314.17, 16942.91, 27184.06, 23770.77, 0.00, 0.00, 0.00
190, 28609.76, 24766.47, 8137.40, -7304.68, 60486.57, 16949.37, 27141.45, 23724.52, 0.00, 0.00, 0.00
191, 28603.64, 24752.16, 8125.44, -7313.85, 60178.02, 16915.15, 27049.52, 23540.57, 0.00, 0.00, 0.00
192, 28592.55, 24733.52, 8116.23, -7327.28, 60010.77, 16907.35, 27110.77, 23588.67, 0.00, 0.00, 0.00
193, 28595.17, 24737.97, 8129.62, -7320.55, 60255.25, 16942.02, 27217.90, 23751.54, 0.00, 0.00, 0.00
194, 28604.76, 24750.24, 8143.86, -7307.43, 60535.36, 16955.96, 27189.09, 23749.04, 0.00, 0.00, 0.00
195, 28600.49, 24745.30, 8135.54, -7317.00, 60288.38, 16916.67, 27076.05, 23554.47, 0.00, 0.00, 0.00
196, 28591.97, 24733.12, 8124.95, -7323.79, 60047.38, 16897.31, 27092.17, 23564.95, 0.00, 0.00, 0.00
197, 28592.89, 24735.15, 8131.41, -7312.78, 60201.83, 16927.47, 27160.14, 23740.41, 0.00, 0.00, 0.00
198, 28602.05, 24746.69, 8145.38, -7299.10, 60519.45, 16950.38, 27160.90, 23799.04, 0.12, 0.92, 0.33
199, 28599.95, 24745.53, 8136.79, -7308.89, 60337.39, 16912.58, 27078.49, 23596.24, 0.00, 0.00, 0.00
200, 28587.72, 24732.49, 8123.65, -7324.60, 60083.83, 16892.04, 27087.54, 23566.09, 0.00, 0.00, 0.00
201, 28582.81, 24726.15, 8125.71, -7325.02, 60165.37, 16912.87, 27150.62, 23701.41, 0.00, 0.00, 0.00
202, 28594.27, 24735.87, 8140.28, -7313.78, 60512.16, 16946.40, 27184.84, 23795.46, 0.00, 0.00, 0.00
203, 28597.36, 24740.59, 8138.40, -7316.02, 60414.80, 16920.40, 27091.65, 23617.48, 0.00, 0.00, 0.00
204, 28584.77, 24727.58, 8126.00, -7327.80, 60115.24, 16890.56, 27087.12, 23539.76, 0.00, 0.00, 0.00
205, 28583.37, 24724.38, 8132.95, -7324.67, 60117.14, 16909.16, 27122.23, 23662.92, 0.00, 0.00, 0.00
206, 28592.64, 24734.95, 8153.78, -7307.99, 60458.58, 16948.68, 27194.21, 23802.89, 0.00, 0.00, 0.00
207, 28603.95, 24752.97, 8160.08, -7303.72, 60455.97, 16931.18, 27125.96, 23661.42, 0.00, 0.00, 0.00
208, 28597.29, 24742.22, 8148.57, -7315.59, 60130.53, 16898.75, 27092.37, 23540.03, 0.12, 0.93, 0.33
209, 28592.33, 24725.92, 8147.19, -7318.99, 60082.11, 16907.69, 27147.67, 23641.64, 0.00, 0.00, 0.00
210, 28597.85, 24729.05, 8163.88, -7307.54, 60409.45, 16953.46, 27219.19, 23808.14, 0.00, 0.00, 0.00
211, 28611.04, 24748.50, 8177.63, -7302.58, 60507.87, 16948.52, 27132.87, 23715.94, 0.00, 0.00, 0.00
212, 28607.64, 24751.94, 8174.99, -7317.20, 60174.87, 16914.93, 27073.79, 23556.35, 0.00, 0.00, 0.00
213, 28596.93, 24739.09, 8171.89, -7329.54, 60058.80, 16913.68, 27135.55, 23623.13, 0.00, 0.00, 0.00
214, 28598.14, 24731.67, 8182.77, -7325.36, 60333.08, 16949.08, 27200.71, 23794.50, 0.00, 0.00, 0.00
215, 28608.27, 24741.28, 8195.07, -7320.11, 60539.05, 16953.15, 27155.42, 23761.69, 0.00, 0.00, 0.00
216, 28598.90, 24738.93, 8186.39, -7331.73, 60259.14, 16917.14, 27082.83, 23586.16, 0.00, 0.00, 0.00
217, 28591.52, 24732.29, 8179.49, -7336.78, 60068.14, 16913.65, 27115.93, 23625.26, 0.00, 0.00, 0.00
218, 28597.49, 24733.95, 8187.65, -7331.91, 60278.38, 16945.37, 27187.28, 23793.83, 0.11, 0.93, 0.33
219, 28610.43, 24750.71, 8200.79, -7321.51, 60545.69, 16967.97, 27163.36, 23819.43, 0.00, 0.00, 0.00
220, 28604.11, 24745.79, 8189.77, -7334.68, 60311.40, 16934.91, 27055.29, 23621.95, 0.00, 0.00, 0.00
221, 28597.07, 24731.69, 8182.59, -7346.68, 60063.41, 16917.23, 27090.16, 23611.33, 0.00, 0.00, 0.00
222, 28596.93, 24725.21, 8192.54, -7347.42, 60210.37, 16945.77, 27191.90, 23775.91, 0.00, 0.00, 0.00
223, 28604.82, 24733.54, 8204.39, -7341.21, 60536.25, 16970.74, 27196.06, 23839.95, 0.00, 0.00, 0.00
224, 28604.17, 24739.09, 8201.15, -7350.91, 60366.16, 16935.92, 27087.21, 23640.30, 0.00, 0.00, 0.00
225, 28591.79, 24722.93, 8186.50, -7367.00, 60075.92, 16914.82, 27079.67, 23594.97, 0.00, 0.00, 0.00
226, 28586.12, 24713.79, 8188.05, -7369.37, 60152.83, 16938.60, 27144.27, 23753.18, 0.00, 0.00, 0.00
227, 28594.88, 24725.52, 8200.68, -7354.22, 60519.45, 16975.50, 27185.22, 23873.47, 0.00, 0.00, 0.00
228, 28601.54, 24732.25, 8204.92, -7353.08, 60436.57, 16950.49, 27099.43, 23689.09, 0.12, 0.91, 0.34
229, 28587.84, 24716.87, 8193.41, -7365.08, 60120.13, 16927.13, 27079.43, 23597.27, 0.00, 0.00, 0.00
230, 28580.53, 24709.85, 8189.34, -7368.95, 60123.80, 16942.76, 27143.55, 23725.04, 0.00, 0.00, 0.00
231, 28591.54, 24721.90, 8202.73, -7358.69, 60448.86, 16982.92, 27189.44, 23870.10, 0.00, 0.00, 0.00
232, 28602.54, 24738.60, 8208.59, -7351.69, 60477.14, 16973.53, 27112.35, 23742.45, 0.00, 0.00, 0.00
233, 28593.31, 24733.17, 8191.44, -7366.46, 60150.93, 16941.71, 27043.24, 23607.76, 0.00, 0.00, 0.00
234, 28587.79, 24724.54, 8187.76, -7370.62, 60079.95, 16953.93, 27121.83, 23708.54, 0.00, 0.00, 0.00
235, 28590.14, 24721.05, 8198.96, -7361.39, 60396.36, 16994.28, 27192.86, 23878.61, 0.00, 0.00, 0.00
236, 28599.79, 24731.87, 8205.39, -7355.67, 60529.84, 16985.87, 27115.68, 23805.01, 0.00, 0.00, 0.00
237, 28601.02, 24738.78, 8200.16, -7360.14, 60210.52, 16958.74, 27071.05, 23654.80, 0.12, 0.92, 0.34
238, 28591.48, 24725.48, 8189.30, -7365.93, 60075.23, 16958.42, 27125.52, 23726.38, 0.00, 0.00, 0.00
239, 28592.04, 24723.78, 8191.00, -7353.46, 60316.07, 16995.51, 27190.07, 23895.22, 0.00, 0.00, 0.00
240, 28599.84, 24735.63, 8197.19, -7342.48, 60521.19, 17000.18, 27149.68, 23875.48, 0.00, 0.00, 0.00
241, 28592.89, 24730.64, 8185.16, -7351.65, 60230.98, 16958.07, 27051.18, 23681.52, 0.00, 0.00, 0.00
242, 28581.31, 24716.76, 8172.71, -7360.97, 60030.73, 16947.83, 27081.62, 23709.61, 0.00, 0.00, 0.00
243, 28582.09, 24713.61, 8180.49, -7353.59, 60236.72, 16985.00, 27184.71, 23879.02, 0.00, 0.00, 0.00
244, 28594.43, 24726.84, 8196.12, -7340.67, 60525.37, 17007.02, 27184.01, 23901.41, 0.00, 0.00, 0.00
245, 28594.00, 24726.84, 8190.60, -7350.26, 60295.62, 16965.49, 27072.54, 23684.82, 0.00, 0.00, 0.00
246, 28583.79, 24714.37, 8181.21, -7362.24, 60040.76, 16947.96, 27109.67, 23675.55, 0.00, 0.00, 0.00
247, 28577.44, 24705.72, 8182.19, -7359.11, 60161.15, 16978.54, 27183.99, 23831.18, 0.11, 0.92, 0.33
248, 28586.05, 24711.60, 8196.74, -7349.05, 60485.41, 17007.49, 27196.98, 23898.08, 0.00, 0.00, 0.00
249, 28583.48, 24709.43, 8188.92, -7360.29, 60360.28, 16969.69, 27096.59, 23693.09, 0.00, 0.00, 0.00
250, 28573.08, 24698.79, 8178.41, -7370.29, 60054.20, 16946.11, 27079.18, 23626.75, 0.00, 0.00, 0.00
251, 28567.61, 24689.24, 8179.78, -7368.79, 60102.86, 16967.23, 27156.70, 23771.13, 0.00, 0.00, 0.00
252, 28577.87, 24701.45, 8189.75, -7355.02, 60465.07, 17000.33, 27195.72, 23890.64, 0.00, 0.00, 0.00
253, 28582.67, 24712.27, 8187.11, -7352.02, 60408.74, 16976.71, 27098.65, 23712.27, 0.00, 0.00, 0.00
254, 28573.80, 24698.68, 8178.61, -7356.09, 60088.21, 16948.81, 27093.35, 23614.42, 0.00, 0.00, 0.00
255, 28566.78, 24686.41, 8173.36, -7353.99, 60080.95, 16967.63, 27157.95, 23729.01, 0.00, 0.00, 0.00
0, 28575.25, 24693.16, 8186.42, -7342.79, 60429.08, 17011.67, 27211.68, 23875.60, 0.00, 0.00, 0.00
1, 28584.93, 24705.96, 8192.79, -7337.50, 60468.20, 16996.96, 27120.98, 23749.91, 0.11, 0.93, 0.34
2, 28577.75, 24701.00, 8182.84, -7347.08, 60128.38, 16967.30, 27063.92, 23619.38, 0.00, 0.00, 0.00
3, 28571.14, 24689.83, 8174.95, -7354.46, 60033.59, 16970.16, 27102.36, 23721.46, 0.00, 0.00, 0.00
4, 28576.10, 24691.19, 8183.60, -7344.76, 60326.55, 17008.31, 27181.53, 23914.73, 0.00, 0.00, 0.00
5, 28587.97, 24697.98, 8196.18, -7338.90, 60484.69, 17001.16, 27131.11, 23861.83, 0.00, 0.00, 0.00
6, 28584.33, 24695.70, 8187.53, -7347.62, 60176.28, 16963.12, 27058.73, 23693.27, 0.00, 0.00, 0.00
7, 28576.35, 24689.87, 8176.80, -7356.99, 60021.74, 16949.66, 27106.90, 23749.13, 0.00, 0.00, 0.00
8, 28578.40, 24694.92, 8183.11, -7346.08, 60262.71, 16988.00, 27182.40, 23920.03, 0.00, 0.00, 0.00
9, 28593.15, 24707.88, 8197.88, -7326.32, 60481.98, 17004.33, 27163.43, 23898.42, 0.00, 0.00, 0.00
10, 28591.59, 24700.55, 8190.26, -7327.95, 60192.39, 16973.45, 27073.57, 23698.10, 0.00, 0.00, 0.00
11, 28575.88, 24679.83, 8176.18, -7337.54, 60004.02, 16964.04, 27110.45, 23713.84, 0.12, 0.92, 0.34
12, 28579.14, 24683.81, 8181.30, -7326.41, 60179.93, 16998.59, 27194.18, 23871.51, 0.00, 0.00, 0.00
13, 28592.89, 24697.98, 8193.95, -7317.27, 60466.85, 17014.28, 27177.71, 23907.11, 0.00, 0.00, 0.00
14, 28591.81, 24696.33, 8187.60, -7328.47, 60251.20, 16973.87, 27085.64, 23686.72, 0.00, 0.00, 0.00
15, 28583.19, 24680.62, 8173.38, -7342.86, 59989.33, 16953.11, 27090.85, 23650.85, 0.00, 0.00, 0.00
16, 28582.38, 24680.44, 8175.31, -7341.59, 60115.21, 16980.31, 27158.33, 23804.76, 0.00, 0.00, 0.00
17, 28593.11, 24703.91, 8189.01, -7325.49, 60461.09, 17016.52, 27191.81, 23893.41, 0.00, 0.00, 0.00
18, 28592.66, 24700.02, 8184.45, -7329.56, 60332.25, 16984.04, 27090.34, 23693.68, 0.00, 0.00, 0.00
19, 28584.59, 24683.28, 8175.26, -7338.06, 60022.59, 16956.73, 27089.22, 23622.17, 0.00, 0.00, 0.00
20, 28578.29, 24676.95, 8176.45, -7331.39, 60068.39, 16976.39, 27172.10, 23766.97, 0.00, 0.00, 0.00
21, 28584.62, 24682.14, 8185.19, -7318.43, 60426.55, 17010.41, 27197.89, 23893.99, 0.12, 0.93, 0.34
22, 28588.84, 24690.25, 8177.59, -7319.50, 60403.08, 16983.86, 27102.21, 23733.82, 0.00, 0.00, 0.00
23, 28588.13, 24680.44, 8167.95, -7323.95, 60053.86, 16958.07, 27071.34, 23622.08, 0.00, 0.00, 0.00
24, 28582.98, 24671.21, 8163.73, -7328.44, 60015.64, 16966.65, 27142.04, 23742.02, 0.00, 0.00, 0.00
25, 28595.12, 24685.24, 8180.02, -7310.65, 60336.99, 17008.85, 27198.83, 23905.93, 0.00, 0.00, 0.00
26, 28606.34, 24701.16, 8189.03, -7300.64, 60392.60, 16998.54, 27133.50, 23801.57, 0.00, 0.00, 0.00
27, 28594.45, 24686.96, 8169.88, -7317.94, 60078.38, 16958.87, 27070.49, 23650.16, 0.00, 0.00, 0.00
28, 28587.72, 24676.79, 8162.39, -7321.38, 59978.60, 16962.83, 27114.90, 23731.09, 0.00, 0.00, 0.00
29, 28594.79, 24686.58, 8179.42, -7306.58, 60261.29, 17005.07, 27196.48, 23904.97, 0.00, 0.00, 0.00
30, 28607.04, 24700.11, 8192.70, -7299.23, 60442.73, 17005.61, 27148.67, 23845.13, 0.00, 0.00, 0.00
31, 28603.26, 24692.06, 8183.98, -7310.85, 60132.40, 16965.89, 27078.15, 23656.57, 0.12, 0.93, 0.33
32, 28594.14, 24679.05, 8176.54, -7317.87, 59954.55, 16964.88, 27104.19, 23705.37, 0.00, 0.00, 0.00
33, 28596.57, 24680.86, 8188.23, -7308.66, 60207.77, 17008.87, 27228.54, 23883.17, 0.00, 0.00, 0.00
34, 28608.20, 24695.90, 8197.01, -7299.77, 60459.66, 17019.78, 27183.65, 23862.81, 0.00, 0.00, 0.00
35, 28607.21, 24696.02, 8189.75, -7307.17, 60169.39, 16982.99, 27095.01, 23653.98, 0.00, 0.00, 0.00
36, 28596.66, 24684.19, 8181.30, -7315.32, 59944.34, 16970.58, 27131.42, 23658.16, 0.00, 0.00, 0.00
37, 28593.76, 24679.70, 8181.77, -7312.42, 60108.13, 16997.96, 27212.44, 23817.48, 0.00, 0.00, 0.00
38, 28602.81, 24687.14, 8191.76, -7300.12, 60422.20, 17023.69, 27203.44, 23872.29, 0.00, 0.00, 0.00
39, 28602.23, 24692.37, 8188.54, -7300.50, 60233.48, 16995.44, 27103.81, 23669.80, 0.00, 0.00, 0.00
40, 28586.16, 24679.81, 8169.58, -7315.66, 59982.13, 16973.33, 27096.15, 23629.12, 0.00, 0.00, 0.00
41, 28582.54, 24664.17, 8169.88, -7312.37, 60070.64, 16996.96, 27179.92, 23772.55, 0.12, 0.93, 0.34
42, 28593.47, 24672.21, 8188.36, -7295.48, 60412.38, 17033.88, 27213.14, 23879.69, 0.00, 0.00, 0.00
43, 28590.29, 24679.59, 8183.55, -7301.80, 60307.02, 17002.41, 27110.52, 23699.71, 0.00, 0.00, 0.00
44, 28578.89, 24673.51, 8168.06, -7318.68, 59996.98, 16971.10, 27091.07, 23623.87, 0.00, 0.00, 0.00
45, 28577.24, 24663.16, 8163.50, -7320.29, 60019.04, 16985.13, 27168.79, 23762.32, 0.00, 0.00, 0.00
46, 28587.75, 24668.12, 8176.33, -7306.47, 60377.78, 17022.73, 27222.05, 23896.67, 0.00, 0.00, 0.00
47, 28600.89, 24683.88, 8185.03, -7298.22, 60367.34, 17007.93, 27122.14, 23720.99, 0.00, 0.00, 0.00
48, 28596.11, 24680.59, 8177.79, -7306.00, 60012.15, 16977.00, 27072.28, 23582.90, 0.00, 0.00, 0.00
49, 28587.16, 24669.35, 8172.38, -7312.80, 59948.81, 16978.68, 27152.83, 23675.06, 0.00, 0.00, 0.00
50, 28596.17, 24677.85, 8187.76, -7295.72, 60284.80, 17026.57, 27225.38, 23838.71, 0.00, 0.00, 0.00
51, 28602.79, 24687.70, 8187.42, -7293.26, 60403.87, 17015.47, 27141.25, 23735.63, 0.12, 0.93, 0.33
52, 28597.27, 24683.52, 8174.95, -7300.95, 60079.01, 16974.92, 27082.33, 23572.75, 0.00, 0.00, 0.00
53, 28593.71, 24679.41, 8174.28, -7296.88, 59947.51, 16978.76, 27133.61, 23657.11, 0.00, 0.00, 0.00
54, 28593.98, 24679.52, 8181.95, -7284.79, 60213.38, 17018.01, 27197.24, 23829.37, 0.00, 0.00, 0.00
55, 28599.14, 24685.85, 8185.97, -7280.95, 60410.13, 17016.03, 27136.78, 23781.41, 0.00, 0.00, 0.00
56, 28597.33, 24680.66, 8177.79, -7289.55, 60128.71, 16981.51, 27077.75, 23604.85, 0.00, 0.00, 0.00
57, 28594.56, 24673.89, 8177.14, -7294.98, 59943.20, 16977.85, 27137.88, 23653.71, 0.00, 0.00, 0.00
58, 28597.02, 24678.36, 8188.18, -7291.97, 60147.16, 17012.34, 27214.75, 23827.61, 0.00, 0.00, 0.00
59, 28600.24, 24684.06, 8192.32, -7294.67, 60438.80, 17018.15, 27179.36, 23846.03, 0.00, 0.00, 0.00
60, 28597.18, 24676.84, 8182.24, -7306.05, 60203.33, 16979.75, 27093.58, 23645.53, 0.12, 0.93, 0.34
61, 28584.73, 24659.74, 8166.50, -7319.57, 59954.06, 16963.21, 27105.33, 23644.99, 0.00, 0.00, 0.00
62, 28587.46, 24659.76, 8170.41, -7309.47, 60093.00, 16994.57, 27189.24, 23809.21, 0.00, 0.00, 0.00
63, 28598.94, 24672.59, 8181.88, -7293.91, 60424.61, 17020.83, 27198.63, 23876.22, 0.00, 0.00, 0.00
64, 28602.30, 24677.46, 8176.00, -7296.97, 60257.39, 16988.02, 27086.80, 23678.99, 0.00, 0.00, 0.00
65, 28594.56, 24673.13, 8163.95, -7304.35, 59960.70, 16964.77, 27104.73, 23634.11, 0.00, 0.00, 0.00
66, 28587.01, 24662.18, 8159.08, -7304.57, 60035.22, 16985.40, 27189.76, 23783.46, 0.00, 0.00, 0.00
67, 28596.29, 24668.48, 8168.06, -7293.51, 60384.91, 17018.15, 27213.92, 23888.05, 0.00, 0.00, 0.00
68, 28599.84, 24675.50, 8167.01, -7293.26, 60298.37, 16992.18, 27096.19, 23696.29, 0.00, 0.00, 0.00
69, 28587.52, 24657.46, 8150.88, -7306.81, 59984.70, 16965.93, 27053.43, 23610.55, 0.00, 0.00, 0.00
70, 28580.97, 24645.77, 8148.73, -7312.31, 59996.33, 16974.50, 27158.87, 23744.77, 0.12, 0.94, 0.33
71, 28594.83, 24663.56, 8165.07, -7298.11, 60327.91, 17010.44, 27223.66, 23886.26, 0.00, 0.00, 0.00
72, 28604.06, 24671.23, 8168.56, -7296.37, 60346.09, 16987.93, 27137.01, 23754.47, 0.00, 0.00, 0.00
73, 28595.73, 24656.83, 8152.93, -7307.17, 59998.54, 16954.18, 27072.95, 23621.84, 0.00, 0.00, 0.00
74, 28590.43, 24653.15, 8149.42, -7307.70, 59921.92, 16967.30, 27148.72, 23726.42, 0.00, 0.00, 0.00
75, 28599.75, 24662.11, 8159.91, -7296.86, 60237.50, 17008.80, 27211.71, 23894.53, 0.00, 0.00, 0.00
76, 28609.14, 24679.41, 8164.31, -7288.79, 60371.12, 17001.65, 27138.15, 23800.25, 0.00, 0.00, 0.00
77, 28605.56, 24671.07, 8156.96, -7297.33, 60039.18, 16964.71, 27083.07, 23623.56, 0.00, 0.00, 0.00
78, 28590.63, 24653.50, 8143.21, -7307.48, 59904.59, 16960.12, 27128.51, 23687.66, 0.00, 0.00, 0.00
79, 28591.75, 24657.28, 8146.50, -7297.78, 60183.43, 17000.07, 27212.85, 23858.94, 0.00, 0.00, 0.00
80, 28602.32, 24666.63, 8154.72, -7287.36, 60393.16, 17005.56, 27171.63, 23823.92, 0.12, 0.93, 0.34
81, 28599.30, 24660.70, 8145.29, -7297.44, 60105.58, 16967.90, 27076.41, 23621.61, 0.00, 0.00, 0.00
82, 28593.56, 24653.01, 8134.76, -7307.21, 59909.89, 16960.35, 27116.67, 23652.19, 0.00, 0.00, 0.00
83, 28596.37, 24651.47, 8137.22, -7305.04, 60114.52, 16989.65, 27183.23, 23816.90, 0.00, 0.00, 0.00
84, 28612.33, 24664.75, 8150.14, -7296.17, 60396.63, 17006.12, 27190.23, 23844.53, 0.00, 0.00, 0.00
85, 28611.33, 24666.78, 8141.51, -7307.17, 60158.24, 16964.28, 27082.74, 23637.60, 0.00, 0.00, 0.00
86, 28604.00, 24662.65, 8130.76, -7314.65, 59904.64, 16948.54, 27106.29, 23619.33, 0.00, 0.00, 0.00
87, 28604.60, 24662.89, 8136.82, -7304.24, 60030.95, 16982.72, 27198.70, 23775.13, 0.00, 0.00, 0.00
88, 28611.84, 24676.08, 8141.18, -7298.05, 60370.00, 17001.47, 27205.60, 23851.23, 0.00, 0.00, 0.00
89, 28616.69, 24676.50, 8132.86, -7305.18, 60207.98, 16965.35, 27113.92, 23660.55, 0.00, 0.00, 0.00
90, 28601.92, 24654.11, 8119.38, -7309.56, 59915.75, 16948.46, 27117.29, 23619.04, 0.11, 0.93, 0.33
91, 28591.39, 24647.02, 8121.98, -7298.54, 59975.76, 16978.09, 27189.53, 23763.28, 0.00, 0.00, 0.00
92, 28604.62, 24661.37, 8132.59, -7287.27, 60328.29, 17013.88, 27221.79, 23874.88, 0.00, 0.00, 0.00
93, 28614.17, 24674.13, 8127.90, -7291.56, 60268.66, 16982.32, 27100.51, 23686.32, 0.00, 0.00, 0.00
94, 28607.79, 24669.44, 8125.13, -7299.12, 59944.02, 16955.72, 27086.02, 23588.85, 0.00, 0.00, 0.00
95, 28598.79, 24660.39, 8121.26, -7302.07, 59924.62, 16966.29, 27154.75, 23713.35, 0.00, 0.00, 0.00
96, 28602.32, 24663.18, 8132.86, -7293.02, 60279.72, 17000.71, 27221.70, 23863.46, 0.00, 0.00, 0.00
97, 28616.33, 24676.15, 8142.02, -7283.29, 60330.06, 16988.09, 27147.31, 23731.92, 0.00, 0.00, 0.00
98, 28613.05, 24667.85, 8131.30, -7292.39, 59989.98, 16954.98, 27098.88, 23589.38, 0.00, 0.00, 0.00
99, 28605.11, 24656.95, 8124.23, -7296.61, 59910.86, 16955.50, 27164.10, 23680.80, 0.00, 0.00, 0.00
100, 28616.78, 24667.74, 8138.54, -7283.14, 60211.37, 16991.26, 27231.13, 23841.96, 0.12, 0.93, 0.33
101, 28628.47, 24682.11, 8146.61, -7278.15, 60361.64, 16984.17, 27168.30, 23761.94, 0.00, 0.00, 0.00
102, 28627.62, 24681.94, 8139.70, -7286.38, 60034.79, 16947.67, 27081.69, 23578.79, 0.00, 0.00, 0.00
103, 28621.86, 24676.62, 8135.39, -7292.57, 59867.43, 16945.88, 27121.27, 23636.37, 0.00, 0.00, 0.00
104, 28625.30, 24680.88, 8145.42, -7282.71, 60125.03, 16990.16, 27193.67, 23817.53, 0.00, 0.00, 0.00
105, 28637.23, 24694.86, 8155.93, -7271.07, 60360.97, 17000.36, 27185.15, 23800.09, 0.00, 0.00, 0.00
106, 28633.88, 24692.15, 8140.48, -7282.20, 60087.12, 16962.96, 27084.86, 23597.25, 0.00, 0.00, 0.00
107, 28626.53, 24679.37, 8131.36, -7290.92, 59870.64, 16949.17, 27113.65, 23623.96, 0.00, 0.00, 0.00
108, 28623.29, 24674.11, 8135.86, -7288.99, 60066.82, 16977.98, 27204.78, 23800.52, 0.00, 0.00, 0.00
109, 28633.90, 24686.38, 8145.76, -7277.86, 60361.24, 16994.25, 27185.60, 23844.24, 0.00, 0.00, 0.00
110, 28634.13, 24687.52, 8136.12, -7286.60, 60156.39, 16956.01, 27102.25, 23657.11, 0.12, 0.93, 0.34
111, 28627.13, 24682.00, 8124.90, -7293.98, 59878.45, 16938.91, 27107.37, 23636.30, 0.00, 0.00, 0.00
112, 28628.76, 24682.18, 8127.38, -7287.25, 59978.76, 16968.82, 27167.49, 23796.31, 0.00, 0.00, 0.00
113, 28633.12, 24690.50, 8134.20, -7277.37, 60335.09, 16998.95, 27191.41, 23894.30, 0.00, 0.00, 0.00
114, 28633.66, 24690.99, 8132.77, -7277.08, 60213.54, 16968.46, 27096.19, 23695.71, 0.00, 0.00, 0.00
115, 28623.84, 24674.40, 8121.08, -7283.49, 59902.20, 16943.98, 27097.20, 23618.15, 0.00, 0.00, 0.00
116, 28622.23, 24672.26, 8122.82, -7278.04, 59930.01, 16965.60, 27164.92, 23751.81, 0.00, 0.00, 0.00
117, 28626.62, 24678.61, 8132.82, -7267.60, 60298.30, 17003.15, 27213.72, 23882.86, 0.00, 0.00, 0.00
118, 28631.64, 24686.70, 8132.64, -7267.45, 60282.63, 16979.53, 27144.65, 23726.02, 0.00, 0.00, 0.00
119, 28620.65, 24677.78, 8121.60, -7281.48, 59947.33, 16946.71, 27096.88, 23620.23, 0.00, 0.00, 0.00
120, 28614.99, 24668.37, 8119.65, -7284.05, 59909.91, 16958.80, 27178.00, 23742.67, 0.12, 0.92, 0.34
121, 28621.10, 24672.37, 8130.31, -7277.82, 60232.65, 16996.45, 27239.02, 23896.00, 0.00, 0.00, 0.00
122, 28627.06, 24680.66, 8132.73, -7280.30, 60305.88, 16980.40, 27148.96, 23778.41, 0.00, 0.00, 0.00
123, 28623.73, 24677.51, 8127.27, -7286.87, 59965.93, 16951.70, 27104.98, 23619.96, 0.00, 0.00, 0.00
124, 28618.75, 24673.73, 8122.24, -7289.33, 59851.84, 16956.10, 27158.51, 23702.88, 0.00, 0.00, 0.00
125, 28621.27, 24672.28, 8131.39, -7280.88, 60162.33, 16995.55, 27239.42, 23882.17, 0.00, 0.00, 0.00
126, 28629.95, 24679.83, 8137.78, -7274.96, 60343.63, 16993.90, 27173.46, 23819.09, 0.00, 0.00, 0.00
127, 28622.77, 24673.29, 8122.65, -7289.35, 60036.38, 16954.49, 27080.46, 23636.72, 0.00, 0.00, 0.00
128, 28614.50, 24664.21, 8112.21, -7298.34, 59875.36, 16947.56, 27125.43, 23692.51, 0.00, 0.00, 0.00
129, 28621.65, 24671.21, 8123.45, -7284.95, 60104.60, 16988.13, 27221.21, 23863.19, 0.00, 0.00, 0.00
130, 28632.88, 24683.77, 8133.60, -7272.63, 60353.75, 17000.87, 27191.48, 23854.47, 0.12, 0.93, 0.33
131, 28630.04, 24686.43, 8123.16, -7282.44, 60092.15, 16962.54, 27084.95, 23652.37, 0.00, 0.00, 0.00
132, 28623.67, 24680.33, 8117.35, -7290.04, 59866.42, 16948.63, 27124.62, 23659.97, 0.00, 0.00, 0.00
133, 28622.14, 24670.42, 8127.32, -7286.11, 60037.54, 16978.96, 27205.45, 23828.72, 0.00, 0.00, 0.00
134, 28637.10, 24683.19, 8147.19, -7270.93, 60349.82, 17002.17, 27219.37, 23886.46, 0.00, 0.00, 0.00
135, 28638.35, 24691.32, 8143.28, -7272.99, 60159.65, 16966.96, 27119.21, 23682.57, 0.00, 0.00, 0.00
136, 28627.89, 24680.62, 8131.09, -7280.34, 59881.30, 16941.55, 27106.21, 23644.08, 0.00, 0.00, 0.00
137, 28623.38, 24667.34, 8134.65, -7280.32, 59974.64, 16960.91, 27189.42, 23796.31, 0.00, 0.00, 0.00
138, 28635.62, 24679.83, 8150.72, -7265.30, 60327.56, 16995.66, 27245.68, 23894.73, 0.00, 0.00, 0.00
139, 28641.70, 24687.50, 8147.52, -7262.75, 60221.81, 16970.83, 27115.77, 23701.88, 0.00, 0.00, 0.00
140, 28632.31, 24677.64, 8134.81, -7275.74, 59901.53, 16943.45, 27096.26, 23617.84, 0.12, 0.93, 0.33
141, 28628.72, 24675.52, 8129.69, -7275.63, 59914.45, 16960.84, 27169.80, 23760.39, 0.00, 0.00, 0.00
142, 28638.44, 24682.05, 8146.34, -7260.45, 60270.32, 17000.63, 27251.65, 23911.29, 0.00, 0.00, 0.00
143, 28640.99, 24685.47, 8147.70, -7263.62, 60273.78, 16980.40, 27165.50, 23771.62, 0.00, 0.00, 0.00
144, 28631.58, 24671.50, 8132.21, -7281.55, 59952.11, 16945.44, 27111.64, 23658.11, 0.00, 0.00, 0.00
145, 28624.29, 24663.34, 8127.18, -7285.57, 59910.45, 16955.27, 27172.08, 23765.18, 0.00, 0.00, 0.00
146, 28632.05, 24675.28, 8142.32, -7269.48, 60224.11, 17001.65, 27243.20, 23925.53, 0.00, 0.00, 0.00
147, 28638.93, 24685.69, 8144.37, -7266.93, 60329.68, 16992.13, 27168.70, 23829.64, 0.00, 0.00, 0.00
148, 28635.56, 24682.34, 8137.71, -7273.68, 59985.02, 16963.59, 27099.92, 23669.85, 0.00, 0.00, 0.00
149, 28620.00, 24662.00, 8127.05, -7283.36, 59875.16, 16961.80, 27159.85, 23739.18, 0.12, 0.95, 0.33
150, 28622.71, 24664.43, 8137.80, -7274.13, 60159.02, 16997.76, 27223.51, 23892.36, 0.00, 0.00, 0.00
151, 28628.09, 24673.17, 8152.33, -7270.96, 60350.07, 16998.23, 27195.90, 23827.70, 0.00, 0.00, 0.00
152, 28624.25, 24670.09, 8145.53, -7283.29, 60054.98, 16960.64, 27113.85, 23616.96, 0.00, 0.00, 0.00
153, 28621.47, 24663.70, 8142.67, -7285.55, 59875.61, 16956.35, 27145.75, 23650.54, 0.00, 0.00, 0.00
154, 28620.54, 24661.53, 8151.46, -7279.45, 60086.41, 16991.68, 27217.63, 23823.85, 0.00, 0.00, 0.00
155, 28628.92, 24672.59, 8164.71, -7276.97, 60355.63, 17000.11, 27190.07, 23827.09, 0.00, 0.00, 0.00
156, 28626.28, 24670.60, 8162.23, -7288.81, 60105.16, 16961.71, 27077.04, 23617.10, 0.00, 0.00, 0.00
157, 28615.06, 24661.17, 8156.62, -7301.13, 59861.66, 16942.82, 27115.75, 23617.14, 0.00, 0.00, 0.00
158, 28621.03, 24669.46, 8172.78, -7292.50, 60004.55, 16980.04, 27212.53, 23783.17, 0.00, 0.00, 0.00
159, 28635.13, 24678.20, 8193.95, -7280.77, 60345.48, 17011.49, 27243.65, 23864.35, 0.12, 0.93, 0.34
160, 28638.04, 24679.59, 8196.29, -7286.42, 60184.06, 16985.22, 27126.61, 23670.52, 0.00, 0.00, 0.00
161, 28628.18, 24668.88, 8188.27, -7300.17, 59895.32, 16966.05, 27109.18, 23615.18, 0.00, 0.00, 0.00
162, 28627.24, 24670.13, 8194.35, -7300.73, 59966.84, 16988.71, 27196.91, 23747.32, 0.00, 0.00, 0.00
163, 28634.66, 24678.87, 8208.43, -7296.91, 60305.70, 17019.65, 27209.61, 23851.39, 0.00, 0.00, 0.00
164, 28636.58, 24681.55, 8207.52, -7305.38, 60236.41, 16990.77, 27123.51, 23678.23, 0.00, 0.00, 0.00
165, 28625.45, 24672.19, 8194.17, -7323.15, 59922.23, 16962.76, 27091.52, 23593.34, 0.00, 0.00, 0.00
166, 28622.50, 24667.12, 8195.47, -7325.36, 59919.88, 16981.98, 27146.62, 23722.31, 0.00, 0.00, 0.00
167, 28630.64, 24674.78, 8209.93, -7314.74, 60266.63, 17023.51, 27203.46, 23874.28, 0.00, 0.00, 0.00
168, 28634.77, 24682.40, 8210.76, -7320.04, 60287.48, 17001.72, 27120.98, 23733.42, 0.00, 0.00, 0.00
169, 28630.64, 24681.38, 8202.06, -7331.46, 59936.67, 16978.45, 27080.97, 23591.60, 0.12, 0.93, 0.34
170, 28617.41, 24663.94, 8192.05, -7339.89, 59864.99, 16987.32, 27138.62, 23683.21, 0.00, 0.00, 0.00
171, 28623.82, 24674.38, 8202.31, -7330.19, 60185.96, 17029.06, 27199.81, 23863.12, 0.00, 0.00, 0.00
172, 28634.15, 24687.75, 8208.81, -7326.72, 60313.83, 17022.28, 27133.23, 23795.78, 0.00, 0.00, 0.00
173, 28624.45, 24674.67, 8196.54, -7339.51, 59995.37, 16985.27, 27047.62, 23622.42, 0.00, 0.00, 0.00
174, 28616.89, 24667.00, 8187.42, -7342.66, 59862.62, 16989.36, 27102.23, 23683.15, 0.00, 0.00, 0.00
175, 28629.41, 24688.98, 8199.49, -7327.68, 60115.86, 17032.54, 27173.53, 23850.92, 0.00, 0.00, 0.00
176, 28632.34, 24691.72, 8205.30, -7326.59, 60341.97, 17029.84, 27141.14, 23820.23, 0.00, 0.00, 0.00
177, 28616.49, 24672.95, 8201.15, -7337.16, 60062.18, 16991.75, 27065.19, 23622.71, 0.00, 0.00, 0.00
178, 28605.18, 24658.09, 8194.51, -7344.85, 59874.31, 16984.04, 27093.89, 23650.96, 0.00, 0.00, 0.00
179, 28608.98, 24658.31, 8197.17, -7341.50, 60069.28, 17019.69, 27149.79, 23831.18, 0.12, 0.92, 0.34
180, 28616.02, 24666.20, 8202.49, -7335.78, 60360.66, 17030.42, 27126.50, 23866.03, 0.00, 0.00, 0.00
181, 28620.02, 24674.22, 8201.73, -7332.18, 60118.99, 17003.69, 27067.98, 23676.67, 0.00, 0.00, 0.00
182, 28605.27, 24657.17, 8187.85, -7344.13, 59871.63, 16986.88, 27086.60, 23672.71, 0.00, 0.00, 0.00
183, 28607.59, 24660.08, 8196.09, -7333.63, 60008.08, 17017.75, 27164.28, 23828.14, 0.00, 0.00, 0.00
184, 28624.09, 24681.40, 8213.62, -7317.04, 60327.54, 17045.42, 27172.75, 23913.88, 0.00, 0.00, 0.00
185, 28622.91, 24685.62, 8207.14, -7322.83, 60183.34, 17010.04, 27070.55, 23724.28, 0.00, 0.00, 0.00
186, 28612.65, 24675.52, 8193.39, -7332.80, 59882.64, 16987.73, 27052.23, 23674.47, 0.00, 0.00, 0.00
187, 28609.54, 24667.70, 8195.29, -7330.01, 59944.43, 17014.17, 27118.39, 23841.53, 0.00, 0.00, 0.00
188, 28623.40, 24673.55, 8217.04, -7316.04, 60290.03, 17050.47, 27195.23, 23967.48, 0.00, 0.00, 0.00
189, 28623.35, 24676.06, 8209.39, -7324.67, 60244.39, 17017.97, 27098.52, 23781.23, 0.12, 0.93, 0.34
190, 28614.84, 24670.60, 8197.48, -7332.47, 59920.27, 16987.64, 27060.45, 23669.92, 0.00, 0.00, 0.00
191, 28607.64, 24662.33, 8195.49, -7331.17, 59904.15, 17001.14, 27139.29, 23806.93, 0.00, 0.00, 0.00
192, 28614.99, 24668.61, 8206.35, -7317.22, 60249.53, 17041.82, 27193.69, 23973.65, 0.00, 0.00, 0.00
193, 28616.83, 24668.01, 8203.18, -7319.82, 60291.06, 17019.56, 27119.59, 23847.95, 0.00, 0.00, 0.00
194, 28610.21, 24662.73, 8189.43, -7331.55, 59963.45, 16984.15, 27056.47, 23695.11, 0.00, 0.00, 0.00
195, 28605.00, 24660.03, 8187.18, -7333.12, 59868.72, 16990.30, 27108.02, 23780.82, 0.00, 0.00, 0.00
196, 28605.40, 24658.76, 8195.49, -7325.20, 60182.72, 17024.56, 27180.35, 23958.59, 0.00, 0.00, 0.00
197, 28617.88, 24673.55, 8211.16, -7311.17, 60338.04, 17023.11, 27137.61, 23883.02, 0.00, 0.00, 0.00
198, 28612.51, 24666.13, 8203.25, -7318.70, 60028.83, 16990.10, 27060.76, 23699.02, 0.00, 0.00, 0.00
199, 28608.53, 24656.16, 8199.16, -7321.13, 59871.47, 16987.62, 27101.33, 23752.95, 0.11, 0.94, 0.34
200, 28606.57, 24654.51, 8209.26, -7314.43, 60118.21, 17019.24, 27186.04, 23934.61, 0.00, 0.00, 0.00
201, 28612.73, 24666.11, 8217.60, -7307.57, 60349.30, 17024.56, 27136.71, 23924.05, 0.00, 0.00, 0.00
202, 28613.99, 24665.28, 8217.33, -7313.54, 60063.58, 16988.17, 27046.75, 23720.32, 0.00, 0.00, 0.00
203, 28604.76, 24652.63, 8207.34, -7324.53, 59837.79, 16975.39, 27071.45, 23728.43, 0.00, 0.00, 0.00
204, 28603.15, 24652.50, 8214.02, -7317.45, 60042.75, 17011.20, 27153.72, 23902.44, 0.00, 0.00, 0.00
205, 28615.66, 24665.73, 8228.48, -7305.91, 60360.59, 17035.92, 27147.11, 23942.61, 0.00, 0.00, 0.00
206, 28617.23, 24666.71, 8225.82, -7311.95, 60136.20, 16999.28, 27041.30, 23725.35, 0.00, 0.00, 0.00
207, 28606.23, 24651.43, 8214.36, -7320.51, 59867.58, 16983.32, 27052.54, 23697.38, 0.00, 0.00, 0.00
208, 28600.40, 24648.61, 8215.14, -7317.45, 59980.32, 17012.56, 27135.08, 23863.08, 0.00, 0.00, 0.00
209, 28612.76, 24662.73, 8229.71, -7301.38, 60327.56, 17043.49, 27164.90, 23967.39, 0.11, 0.93, 0.34
210, 28621.07, 24663.61, 8229.82, -7298.22, 60183.88, 17016.05, 27064.07, 23772.55, 0.00, 0.00, 0.00
211, 28607.06, 24646.91, 8212.12, -7311.14, 59879.25, 16990.21, 27045.88, 23704.49, 0.00, 0.00, 0.00
212, 28601.00, 24643.11, 8203.83, -7314.76, 59931.53, 17005.74, 27108.60, 23841.96, 0.00, 0.00, 0.00
213, 28614.19, 24658.53, 8218.09, -7297.35, 60267.43, 17041.71, 27149.19, 23974.50, 0.00, 0.00, 0.00
214, 28619.35, 24664.75, 8218.58, -7295.41, 60231.76, 17017.92, 27068.28, 23805.79, 0.00, 0.00, 0.00
215, 28609.94, 24649.88, 8206.62, -7306.23, 59919.08, 16988.51, 27061.95, 23693.36, 0.00, 0.00, 0.00
216, 28606.12, 24646.11, 8201.19, -7310.63, 59882.87, 16993.14, 27118.79, 23811.54, 0.00, 0.00, 0.00
217, 28614.66, 24659.36, 8213.68, -7296.28, 60223.35, 17031.04, 27190.47, 23976.92, 0.00, 0.00, 0.00
218, 28620.40, 24668.23, 8211.36, -7294.54, 60288.29, 17016.43, 27121.45, 23857.04, 0.00, 0.00, 0.00
219, 28610.52, 24653.44, 8186.04, -7312.24, 59939.89, 16973.89, 27036.11, 23691.42, 0.11, 0.93, 0.33
220, 28598.14, 24635.55, 8171.66, -7321.05, 59836.69, 16970.40, 27079.23, 23766.77, 0.00, 0.00, 0.00
221, 28608.53, 24649.70, 8191.67, -7301.33, 60139.13, 17018.24, 27189.89, 23942.43, 0.00, 0.00, 0.00
222, 28621.38, 24663.85, 8202.42, -7290.71, 60314.64, 17017.77, 27164.16, 23874.77, 0.00, 0.00, 0.00
223, 28616.07, 24658.06, 8188.56, -7302.07, 59994.94, 16977.15, 27058.64, 23669.04, 0.00, 0.00, 0.00
224, 28604.71, 24648.86, 8177.99, -7307.86, 59838.10, 16973.36, 27102.36, 23714.02, 0.00, 0.00, 0.00
225, 28612.13, 24653.57, 8192.18, -7289.55, 60080.86, 17015.85, 27184.53, 23892.58, 0.00, 0.00, 0.00
226, 28627.67, 24668.57, 8209.33, -7271.33, 60328.12, 17031.34, 27154.53, 23892.88, 0.00, 0.00, 0.00
227, 28623.49, 24666.13, 8200.81, -7279.20, 60057.70, 16991.46, 27056.88, 23692.94, 0.00, 0.00, 0.00
228, 28611.75, 24656.01, 8190.77, -7288.05, 59840.22, 16973.38, 27093.35, 23701.92, 0.00, 0.00, 0.00
229, 28610.63, 24655.92, 8196.92, -7279.34, 60018.79, 17001.43, 27171.23, 23859.17, 0.12, 0.93, 0.33
230, 28620.69, 24667.12, 8209.77, -7266.13, 60339.79, 17015.96, 27170.36, 23911.13, 0.00, 0.00, 0.00
231, 28623.64, 24673.91, 8206.73, -7267.87, 60131.36, 16977.47, 27065.30, 23712.43, 0.00, 0.00, 0.00
232, 28615.26, 24665.24, 8195.24, -7272.77, 59840.45, 16961.64, 27072.25, 23696.49, 0.00, 0.00, 0.00
233, 28613.29, 24658.09, 8193.93, -7270.89, 59946.91, 16985.72, 27147.82, 23858.23, 0.00, 0.00, 0.00
234, 28627.80, 24674.11, 8210.76, -7251.71, 60291.04, 17021.81, 27190.85, 23966.90, 0.00, 0.00, 0.00
235, 28631.38, 24678.02, 8210.22, -7251.60, 60189.85, 16994.75, 27090.40, 23777.58, 0.00, 0.00, 0.00
236, 28617.18, 24663.43, 8194.06, -7266.98, 59876.12, 16966.31, 27079.76, 23672.82, 0.00, 0.00, 0.00
237, 28609.34, 24657.08, 8188.85, -7268.85, 59907.61, 16986.10, 27142.44, 23801.08, 0.00, 0.00, 0.00
238, 28620.42, 24656.86, 8200.99, -7255.98, 60250.76, 17024.90, 27194.67, 23943.43, 0.12, 0.93, 0.33
239, 28628.34, 24666.15, 8201.19, -7257.81, 60230.59, 17004.18, 27091.01, 23787.80, 0.00, 0.00, 0.00
240, 28617.63, 24655.74, 8186.73, -7273.86, 59902.02, 16967.63, 27029.56, 23658.16, 0.00, 0.00, 0.00
241, 28611.24, 24650.33, 8186.64, -7275.29, 59853.23, 16974.52, 27110.86, 23776.69, 0.00, 0.00, 0.00
242, 28615.87, 24654.96, 8197.84, -7265.19, 60195.50, 17011.38, 27181.38, 23957.13, 0.00, 0.00, 0.00
243, 28631.24, 24673.15, 8211.72, -7249.43, 60284.06, 17006.03, 27124.80, 23862.90, 0.00, 0.00, 0.00
244, 28624.51, 24666.13, 8204.97, -7257.63, 59943.22, 16973.27, 27069.24, 23704.98, 0.00, 0.00, 0.00
245, 28609.36, 24645.72, 8193.43, -7269.95, 59833.34, 16967.52, 27103.19, 23787.44, 0.00, 0.00, 0.00
246, 28610.66, 24646.15, 8203.72, -7260.16, 60152.99, 17003.66, 27183.16, 23979.13, 0.00, 0.00, 0.00
247, 28626.50, 24668.10, 8223.50, -7242.12, 60331.63, 17008.96, 27154.37, 23935.90, 0.00, 0.00, 0.00
248, 28625.83, 24667.52, 8214.11, -7247.15, 60023.17, 16977.71, 27079.54, 23752.10, 0.12, 0.93, 0.33
249, 28622.41, 24660.70, 8208.32, -7249.72, 59826.61, 16977.38, 27105.71, 23797.66, 0.00, 0.00, 0.00
250, 28622.32, 24660.10, 8214.85, -7243.02, 60054.17, 17013.77, 27176.01, 23974.68, 0.00, 0.00, 0.00
251, 28634.80, 24675.77, 8225.06, -7230.05, 60336.68, 17028.36, 27165.95, 23991.87, 0.00, 0.00, 0.00
252, 28635.56, 24680.15, 8215.67, -7234.16, 60095.66, 16991.21, 27066.80, 23794.01, 0.00, 0.00, 0.00
253, 28625.61, 24670.47, 8202.49, -7242.12, 59848.20, 16976.69, 27094.43, 23793.56, 0.00, 0.00, 0.00
254, 28623.40, 24669.80, 8204.68, -7235.73, 59995.01, 17009.97, 27172.93, 23963.77, 0.00, 0.00, 0.00
255, 28636.12, 24680.59, 8215.45, -7218.88, 60294.66, 17035.31, 27163.45, 24024.59, 0.00, 0.00, 0.00
0, 28636.56, 24680.75, 8207.02, -7224.06, 60101.76, 16998.10, 27074.78, 23814.91, 0.00, 0.00, 0.00
1, 28618.81, 24660.68, 8191.42, -7244.18, 59833.45, 16972.26, 27078.80, 23776.29, 0.00, 0.00, 0.00
2, 28614.90, 24654.33, 8193.10, -7245.34, 59920.20, 16993.23, 27147.15, 23930.65, 0.12, 0.93, 0.33
3, 28623.80, 24665.44, 8204.74, -7232.11, 60292.58, 17030.38, 27194.25, 24057.58, 0.00, 0.00, 0.00
4, 28629.63, 24665.71, 8200.63, -7231.93, 60197.34, 17004.18, 27097.73, 23877.56, 0.00, 0.00, 0.00
5, 28623.15, 24658.51, 8189.70, -7241.27, 59863.67, 16978.65, 27083.45, 23792.94, 0.00, 0.00, 0.00
6, 28615.66, 24657.66, 8183.38, -7246.23, 59878.49, 16993.36, 27140.76, 23929.46, 0.00, 0.00, 0.00
7, 28621.86, 24662.56, 8190.37, -7235.62, 60219.40, 17031.04, 27180.26, 24080.83, 0.00, 0.00, 0.00
8, 28627.24, 24668.75, 8194.13, -7231.62, 60235.40, 17015.38, 27122.97, 23934.69, 0.00, 0.00, 0.00
9, 28618.30, 24659.72, 8183.22, -7240.20, 59886.09, 16986.56, 27084.97, 23752.26, 0.00, 0.00, 0.00
10, 28608.73, 24647.45, 8177.47, -7245.85, 59823.66, 16989.92, 27138.68, 23825.75, 0.00, 0.00, 0.00
11, 28615.84, 24652.59, 8188.78, -7233.94, 60166.69, 17027.42, 27214.61, 23991.27, 0.00, 0.00, 0.00
12, 28625.61, 24666.40, 8196.25, -7226.30, 60278.50, 17021.93, 27157.57, 23900.52, 0.12, 0.93, 0.33
13, 28618.46, 24660.77, 8186.64, -7237.52, 59945.43, 16983.06, 27081.39, 23717.01, 0.00, 0.00, 0.00
14, 28613.03, 24651.87, 8179.98, -7240.62, 59799.65, 16980.33, 27114.47, 23759.99, 0.00, 0.00, 0.00
15, 28619.11, 24656.07, 8189.39, -7229.43, 60062.91, 17019.96, 27216.56, 23926.29, 0.00, 0.00, 0.00
16, 28630.30, 24668.68, 8193.34, -7221.94, 60304.69, 17020.90, 27188.26, 23888.00, 0.00, 0.00, 0.00
17, 28633.88, 24675.65, 8184.58, -7226.41, 59998.85, 16984.51, 27092.62, 23680.69, 0.00, 0.00, 0.00
18, 28624.54, 24664.08, 8169.72, -7236.85, 59797.42, 16971.75, 27114.70, 23696.38, 0.00, 0.00, 0.00
19, 28624.38, 24661.30, 8173.83, -7231.28, 60005.07, 17006.77, 27176.23, 23843.46, 0.00, 0.00, 0.00
20, 28636.34, 24677.71, 8188.07, -7218.03, 60304.91, 17025.93, 27198.07, 23853.76, 0.00, 0.00, 0.00
21, 28633.43, 24675.48, 8179.24, -7226.85, 60056.88, 16982.38, 27112.13, 23632.59, 0.00, 0.00, 0.00
22, 28615.95, 24655.52, 8157.98, -7244.76, 59813.69, 16960.68, 27122.43, 23615.06, 0.11, 0.93, 0.33
23, 28617.21, 24660.03, 8160.62, -7236.27, 59968.23, 16998.93, 27198.23, 23779.77, 0.00, 0.00, 0.00
24, 28629.97, 24676.48, 8173.45, -7221.25, 60295.15, 17028.50, 27199.46, 23854.61, 0.00, 0.00, 0.00
25, 28629.92, 24672.46, 8167.68, -7226.01, 60132.52, 16993.90, 27107.93, 23656.28, 0.00, 0.00, 0.00
26, 28617.92, 24661.19, 8153.20, -7240.53, 59836.82, 16970.25, 27128.85, 23595.33, 0.00, 0.00, 0.00
27, 28616.54, 24657.30, 8153.76, -7236.96, 59899.01, 16994.03, 27195.79, 23732.50, 0.00, 0.00, 0.00
28, 28624.43, 24665.64, 8164.42, -7224.02, 60239.92, 17027.18, 27222.48, 23856.60, 0.00, 0.00, 0.00
29, 28625.52, 24668.50, 8159.73, -7226.85, 60175.61, 16997.23, 27112.53, 23687.46, 0.00, 0.00, 0.00
30, 28618.46, 24660.50, 8149.47, -7235.39, 59851.35, 16975.52, 27093.85, 23592.56, 0.00, 0.00, 0.00
31, 28610.81, 24653.71, 8146.52, -7236.73, 59851.29, 16991.95, 27163.96, 23720.36, 0.00, 0.00, 0.00
32, 28616.58, 24661.77, 8157.72, -7224.87, 60203.95, 17025.30, 27233.12, 23871.13, 0.12, 0.93, 0.34
33, 28630.17, 24671.59, 8167.55, -7215.10, 60241.01, 17010.82, 27166.71, 23741.75, 0.00, 0.00, 0.00
34, 28622.99, 24664.14, 8153.09, -7226.52, 59899.75, 16976.06, 27100.24, 23592.11, 0.00, 0.00, 0.00
35, 28613.72, 24660.70, 8144.51, -7232.04, 59823.59, 16977.33, 27130.19, 23669.36, 0.00, 0.00, 0.00
36, 28617.56, 24663.83, 8159.64, -7220.04, 60139.02, 17020.94, 27223.40, 23834.80, 0.00, 0.00, 0.00
37, 28632.49, 24678.29, 8170.90, -7210.34, 60289.61, 17014.91, 27202.81, 23752.46, 0.00, 0.00, 0.00
38, 28633.68, 24676.37, 8162.95, -7219.70, 59941.81, 16978.27, 27112.58, 23565.73, 0.00, 0.00, 0.00
39, 28627.15, 24665.06, 8151.70, -7229.92, 59791.88, 16973.27, 27168.61, 23628.14, 0.00, 0.00, 0.00
40, 28629.99, 24670.02, 8152.08, -7223.23, 60070.33, 17007.13, 27237.88, 23805.57, 0.00, 0.00, 0.00
41, 28641.05, 24683.90, 8158.59, -7215.52, 60294.41, 17010.32, 27185.46, 23773.45, 0.00, 0.00, 0.00
42, 28635.76, 24683.34, 8150.43, -7224.78, 60009.94, 16972.21, 27082.04, 23575.03, 0.11, 0.93, 0.34
43, 28628.18, 24679.07, 8138.58, -7229.69, 59780.59, 16965.73, 27120.67, 23599.82, 0.00, 0.00, 0.00
44, 28621.86, 24670.42, 8136.39, -7229.78, 59982.04, 16997.56, 27217.58, 23778.75, 0.00, 0.00, 0.00
45, 28632.58, 24679.32, 8145.67, -7217.65, 60295.24, 17018.55, 27211.55, 23825.55, 0.00, 0.00, 0.00
46, 28634.51, 24679.16, 8135.12, -7225.92, 60066.24, 16982.61, 27097.98, 23613.81, 0.00, 0.00, 0.00
47, 28625.16, 24670.94, 8120.12, -7239.55, 59800.50, 16962.09, 27116.82, 23590.34, 0.00, 0.00, 0.00
48, 28626.19, 24668.77, 8122.13, -7233.87, 59917.09, 16993.70, 27212.98, 23753.58, 0.00, 0.00, 0.00
49, 28638.75, 24685.13, 8133.02, -7221.16, 60257.60, 17023.51, 27227.20, 23848.89, 0.00, 0.00, 0.00
50, 28643.45, 24690.61, 8124.68, -7223.97, 60117.81, 16989.54, 27110.18, 23657.71, 0.00, 0.00, 0.00
51, 28632.40, 24673.26, 8104.16, -7236.56, 59831.53, 16964.73, 27124.98, 23603.24, 0.00, 0.00, 0.00
52, 28630.21, 24669.06, 8103.60, -7232.38, 59876.54, 16985.72, 27182.31, 23742.07, 0.11, 0.93, 0.34
53, 28635.98, 24678.47, 8116.21, -7216.75, 60226.08, 17022.13, 27222.59, 23874.79, 0.00, 0.00, 0.00
54, 28641.14, 24687.39, 8120.41, -7209.53, 60185.96, 17001.54, 27151.80, 23717.93, 0.00, 0.00, 0.00
55, 28632.83, 24679.59, 8109.30, -7216.98, 59842.05, 16976.31, 27107.77, 23612.29, 0.00, 0.00, 0.00
56, 28621.16, 24668.41, 8103.02, -7220.08, 59823.82, 16990.19, 27188.46, 23731.05, 0.00, 0.00, 0.00
57, 28624.36, 24673.22, 8115.54, -7210.65, 60167.77, 17032.34, 27258.91, 23872.09, 0.00, 0.00, 0.00
58, 28634.89, 24678.72, 8121.53, -7207.86, 60235.45, 17015.98, 27183.45, 23730.09, 0.00, 0.00, 0.00
59, 28628.20, 24671.65, 8110.53, -7219.41, 59888.34, 16978.79, 27117.98, 23569.71, 0.00, 0.00, 0.00
60, 28619.80, 24660.21, 8100.52, -7229.36, 59792.57, 16977.67, 27167.34, 23648.10, 0.00, 0.00, 0.00
61, 28626.68, 24663.92, 8113.30, -7222.14, 60118.79, 17018.13, 27275.03, 23823.23, 0.11, 0.92, 0.34
62, 28639.49, 24683.34, 8128.99, -7211.50, 60282.61, 17019.09, 27226.97, 23755.93, 0.00, 0.00, 0.00
63, 28633.52, 24685.38, 8117.86, -7225.80, 59950.26, 16976.15, 27133.29, 23573.45, 0.00, 0.00, 0.00
64, 28624.16, 24680.88, 8106.26, -7237.25, 59797.82, 16969.73, 27176.77, 23638.29, 0.00, 0.00, 0.00
65, 28629.54, 24670.16, 8119.07, -7225.56, 60042.73, 17009.10, 27257.68, 23826.09, 0.00, 0.00, 0.00
66, 28644.50, 24677.85, 8132.39, -7210.94, 60268.73, 17020.94, 27231.20, 23824.77, 0.00, 0.00, 0.00
67, 28635.02, 24677.20, 8112.45, -7227.77, 60006.52, 16976.35, 27123.24, 23634.26, 0.00, 0.00, 0.00
68, 28623.40, 24668.19, 8094.95, -7238.25, 59801.00, 16956.95, 27148.12, 23661.09, 0.00, 0.00, 0.00
69, 28625.90, 24670.31, 8098.33, -7229.56, 59980.64, 16989.38, 27236.70, 23843.30, 0.00, 0.00, 0.00
70, 28642.71, 24689.47, 8110.89, -7213.11, 60278.50, 17012.16, 27239.69, 23917.64, 0.00, 0.00, 0.00
71, 28641.81, 24689.63, 8102.26, -7220.71, 60068.37, 16973.56, 27128.15, 23736.61, 0.12, 0.92, 0.34
72, 28626.06, 24674.98, 8084.98, -7236.58, 59815.86, 16953.48, 27119.53, 23725.39, 0.00, 0.00, 0.00
73, 28624.22, 24677.80, 8086.97, -7231.55, 59931.55, 16979.99, 27207.21, 23883.29, 0.00, 0.00, 0.00
74, 28638.02, 24691.99, 8101.84, -7214.09, 60263.68, 17014.33, 27231.26, 23971.78, 0.00, 0.00, 0.00
75, 28644.56, 24693.47, 8099.06, -7214.63, 60123.93, 16985.11, 27132.29, 23783.46, 0.00, 0.00, 0.00
76, 28633.66, 24683.39, 8084.71, -7225.56, 59807.43, 16962.02, 27137.43, 23718.93, 0.00, 0.00, 0.00
77, 28627.49, 24678.56, 8084.96, -7226.77, 59852.79, 16980.78, 27228.34, 23854.09, 0.00, 0.00, 0.00
78, 28633.77, 24686.23, 8095.78, -7214.27, 60221.36, 17015.06, 27284.97, 23990.10, 0.00, 0.00, 0.00
79, 28642.62, 24698.88, 8094.80, -7210.49, 60184.95, 16994.43, 27168.90, 23830.09, 0.00, 0.00, 0.00
80, 28637.23, 24693.33, 8081.99, -7218.58, 59850.28, 16967.32, 27107.77, 23703.91, 0.00, 0.00, 0.00
81, 28629.99, 24685.87, 8076.65, -7220.60, 59810.63, 16975.10, 27220.65, 23802.13, 0.11, 0.93, 0.33
82, 28636.16, 24688.33, 8088.00, -7211.39, 60146.80, 17006.57, 27292.71, 23958.59, 0.00, 0.00, 0.00
83, 28654.47, 24712.27, 8104.65, -7196.68, 60235.09, 16999.02, 27221.03, 23856.49, 0.00, 0.00, 0.00
84, 28649.71, 24706.66, 8094.37, -7205.78, 59911.21, 16965.22, 27150.78, 23700.09, 0.00, 0.00, 0.00
85, 28639.45, 24686.16, 8082.84, -7213.51, 59787.61, 16962.20, 27186.58, 23766.68, 0.00, 0.00, 0.00
86, 28639.02, 24686.96, 8088.09, -7207.63, 60075.52, 16999.48, 27254.29, 23944.51, 0.00, 0.00, 0.00
87, 28646.13, 24700.11, 8093.50, -7203.41, 60277.58, 16998.48, 27204.13, 23901.52, 0.00, 0.00, 0.00
88, 28646.06, 24701.38, 8086.59, -7209.15, 59962.78, 16967.12, 27134.19, 23728.14, 0.00, 0.00, 0.00
89, 28642.55, 24693.56, 8083.04, -7213.85, 59776.34, 16961.91, 27199.84, 23780.53, 0.00, 0.00, 0.00
90, 28635.00, 24686.03, 8084.09, -7216.86, 60009.29, 16986.97, 27277.13, 23952.69, 0.00, 0.00, 0.00
91, 28644.18, 24698.25, 8094.64, -7208.75, 60276.57, 16997.16, 27242.82, 23953.00, 0.11, 0.94, 0.34
92, 28639.20, 24694.94, 8085.50, -7218.90, 60026.50, 16959.50, 27153.99, 23745.33, 0.00, 0.00, 0.00
93, 28630.17, 24677.20, 8073.45, -7231.57, 59783.83, 16943.14, 27178.00, 23740.59, 0.00, 0.00, 0.00
94, 28633.68, 24677.64, 8076.85, -7230.36, 59937.07, 16973.65, 27254.08, 23903.92, 0.00, 0.00, 0.00
95, 28652.52, 24699.66, 8093.48, -7217.62, 60254.51, 16997.47, 27253.66, 23953.27, 0.00, 0.00, 0.00
96, 28650.67, 24709.18, 8102.82, -7212.59, 60070.22, 16975.32, 27145.84, 23750.05, 0.00, 0.00, 0.00
97, 28637.97, 24696.53, 8101.81, -7219.26, 59771.00, 16961.58, 27141.90, 23709.25, 0.00, 0.00, 0.00
98, 28634.97, 24687.86, 8104.72, -7226.32, 59860.52, 16981.31, 27233.99, 23860.55, 0.00, 0.00, 0.00
99, 28642.71, 24698.77, 8124.28, -7217.62, 60211.20, 17010.41, 27270.74, 23971.64, 0.00, 0.00, 0.00
100, 28643.49, 24705.74, 8129.98, -7220.10, 60122.64, 16979.70, 27151.51, 23789.14, 0.00, 0.00, 0.00
101, 28632.20, 24687.52, 8121.95, -7233.76, 59788.03, 16955.79, 27104.60, 23700.58, 0.12, 0.93, 0.33
102, 28625.34, 24683.61, 8125.82, -7236.22, 59815.37, 16975.21, 27210.37, 23837.75, 0.00, 0.00, 0.00
103, 28635.33, 24694.94, 8147.57, -7219.19, 60184.62, 17017.92, 27284.57, 23985.81, 0.00, 0.00, 0.00
104, 28645.06, 24701.72, 8155.61, -7215.63, 60191.84, 17001.54, 27202.72, 23841.96, 0.00, 0.00, 0.00
105, 28633.68, 24691.30, 8141.91, -7234.99, 59855.02, 16968.35, 27152.76, 23707.56, 0.00, 0.00, 0.00
106, 28630.88, 24690.59, 8140.26, -7241.16, 59783.40, 16975.19, 27199.97, 23797.25, 0.00, 0.00, 0.00
107, 28638.48, 24696.98, 8152.58, -7232.62, 60109.43, 17016.67, 27268.37, 23940.57, 0.00, 0.00, 0.00
108, 28647.34, 24707.13, 8156.73, -7231.21, 60225.39, 17009.07, 27189.13, 23824.34, 0.00, 0.00, 0.00
109, 28635.80, 24697.58, 8142.90, -7249.94, 59890.47, 16968.75, 27093.17, 23647.23, 0.00, 0.00, 0.00
110, 28633.01, 24693.11, 8145.33, -7251.80, 59738.84, 16975.57, 27154.84, 23721.44, 0.00, 0.00, 0.00
111, 28641.12, 24705.16, 8157.25, -7239.82, 60023.06, 17019.33, 27249.21, 23906.38, 0.12, 0.93, 0.34
112, 28649.44, 24715.02, 8163.21, -7237.94, 60231.02, 17018.93, 27191.37, 23859.59, 0.00, 0.00, 0.00
113, 28644.12, 24708.53, 8150.85, -7250.59, 59929.18, 16981.00, 27100.75, 23650.67, 0.00, 0.00, 0.00
114, 28638.53, 24700.85, 8141.38, -7254.77, 59735.26, 16976.39, 27143.13, 23689.58, 0.00, 0.00, 0.00
115, 28645.75, 24712.65, 8152.73, -7243.10, 59946.35, 17017.43, 27233.86, 23876.42, 0.00, 0.00, 0.00
116, 28656.97, 24729.70, 8161.92, -7231.28, 60206.07, 17031.11, 27206.63, 23900.36, 0.00, 0.00, 0.00
117, 28647.54, 24721.61, 8146.12, -7241.96, 59964.39, 16987.37, 27091.99, 23702.88, 0.00, 0.00, 0.00
118, 28634.26, 24707.88, 8133.64, -7252.92, 59726.12, 16974.58, 27115.41, 23701.63, 0.00, 0.00, 0.00
119, 28631.18, 24707.13, 8134.31, -7249.56, 59867.80, 17004.89, 27195.39, 23851.52, 0.00, 0.00, 0.00
120, 28639.94, 24715.73, 8144.60, -7235.51, 60216.18, 17034.91, 27223.44, 23920.66, 0.00, 0.00, 0.00
121, 28638.37, 24715.06, 8137.89, -7239.93, 60037.86, 16998.86, 27121.47, 23705.32, 0.12, 0.92, 0.34
122, 28620.60, 24701.22, 8122.33, -7256.87, 59743.84, 16971.90, 27125.00, 23642.91, 0.00, 0.00, 0.00
123, 28623.08, 24702.90, 8125.98, -7249.34, 59811.79, 16999.64, 27195.12, 23798.79, 0.00, 0.00, 0.00
124, 28633.16, 24711.24, 8138.52, -7236.09, 60163.96, 17033.82, 27227.29, 23929.08, 0.00, 0.00, 0.00
125, 28639.74, 24717.14, 8139.32, -7232.73, 60083.75, 17006.35, 27104.87, 23759.03, 0.00, 0.00, 0.00
126, 28629.92, 24708.62, 8127.88, -7241.92, 59750.99, 16975.81, 27084.12, 23666.94, 0.00, 0.00, 0.00
127, 28623.71, 24700.82, 8130.51, -7239.10, 59747.24, 16988.53, 27196.60, 23797.21, 0.00, 0.00, 0.00
128, 28628.94, 24706.14, 8149.42, -7220.98, 60102.12, 17036.14, 27262.02, 23957.22, 0.00, 0.00, 0.00
129, 28633.66, 24714.23, 8150.47, -7218.63, 60133.19, 17015.18, 27182.60, 23818.17, 0.00, 0.00, 0.00
130, 28625.23, 24706.16, 8133.06, -7230.43, 59800.39, 16974.90, 27124.62, 23680.64, 0.00, 0.00, 0.00
131, 28625.97, 24701.05, 8137.67, -7227.97, 59699.85, 16986.83, 27189.15, 23783.39, 0.11, 0.93, 0.33
132, 28630.21, 24707.82, 8152.66, -7216.26, 60025.25, 17030.98, 27269.75, 23968.91, 0.00, 0.00, 0.00
133, 28637.70, 24716.09, 8156.44, -7211.52, 60182.56, 17025.01, 27208.69, 23897.39, 0.00, 0.00, 0.00
134, 28628.43, 24706.30, 8141.06, -7225.54, 59840.80, 16985.96, 27121.52, 23720.14, 0.00, 0.00, 0.00
135, 28618.41, 24697.71, 8134.11, -7231.71, 59687.52, 16982.07, 27168.90, 23785.92, 0.00, 0.00, 0.00
136, 28617.88, 24695.66, 8142.11, -7222.90, 59967.67, 17019.87, 27256.52, 23979.20, 0.00, 0.00, 0.00
137, 28625.01, 24702.74, 8146.23, -7215.23, 60200.33, 17022.51, 27214.52, 23957.29, 0.00, 0.00, 0.00
138, 28628.61, 24702.86, 8140.68, -7219.88, 59898.29, 16992.55, 27139.64, 23761.71, 0.00, 0.00, 0.00
139, 28623.75, 24698.12, 8133.13, -7227.70, 59680.32, 16982.41, 27188.93, 23793.52, 0.00, 0.00, 0.00
140, 28622.99, 24700.22, 8134.96, -7225.36, 59881.73, 17014.75, 27254.91, 23953.96, 0.00, 0.00, 0.00
141, 28631.87, 24715.28, 8148.73, -7215.30, 60163.20, 17032.21, 27236.40, 23965.85, 0.11, 0.93, 0.33
142, 28631.20, 24708.45, 8141.62, -7224.13, 59942.64, 16994.92, 27125.05, 23757.98, 0.00, 0.00, 0.00
143, 28614.26, 24689.29, 8123.58, -7241.32, 59712.32, 16970.58, 27158.75, 23739.85, 0.00, 0.00, 0.00
144, 28609.65, 24690.88, 8126.65, -7239.15, 59848.22, 16997.14, 27219.69, 23889.90, 0.00, 0.00, 0.00
145, 28622.10, 24707.71, 8146.29, -7221.85, 60177.04, 17027.87, 27246.17, 23964.58, 0.00, 0.00, 0.00
146, 28630.30, 24709.12, 8147.99, -7217.11, 60023.77, 16997.56, 27144.54, 23771.10, 0.00, 0.00, 0.00
147, 28622.99, 24693.00, 8134.78, -7226.94, 59721.60, 16968.79, 27135.87, 23703.11, 0.00, 0.00, 0.00
148, 28615.93, 24691.84, 8133.02, -7226.39, 59779.78, 16988.31, 27222.10, 23846.27, 0.00, 0.00, 0.00
149, 28628.65, 24712.83, 8150.21, -7207.63, 60132.74, 17034.02, 27266.91, 23971.78, 0.00, 0.00, 0.00
150, 28643.18, 24720.31, 8153.09, -7201.31, 60073.26, 17013.66, 27166.67, 23802.95, 0.11, 0.92, 0.32
151, 28638.02, 24712.83, 8137.85, -7210.47, 59737.58, 16985.85, 27135.38, 23702.33, 0.00, 0.00, 0.00
152, 28630.19, 24707.88, 8130.09, -7212.08, 59722.88, 16990.21, 27196.46, 23831.14, 0.00, 0.00, 0.00
153, 28636.67, 24715.53, 8140.30, -7199.18, 60072.28, 17031.02, 27246.71, 23995.02, 0.00, 0.00, 0.00
154, 28643.49, 24722.44, 8139.07, -7195.54, 60134.75, 17017.75, 27171.67, 23851.21, 0.00, 0.00, 0.00
155, 28638.53, 24719.33, 8127.38, -7200.01, 59801.31, 16990.77, 27130.41, 23693.25, 0.00, 0.00, 0.00
156, 28631.31, 24712.63, 8120.81, -7198.98, 59707.74, 16996.27, 27184.23, 23780.53, 0.00, 0.00, 0.00
157, 28634.48, 24718.73, 8125.95, -7190.96, 60025.74, 17030.55, 27242.44, 23948.51, 0.00, 0.00, 0.00
158, 28650.89, 24735.54, 8133.44, -7180.14, 60178.80, 17026.13, 27206.72, 23885.56, 0.00, 0.00, 0.00
159, 28640.45, 24723.91, 8113.77, -7197.46, 59865.41, 16982.38, 27138.79, 23720.30, 0.00, 0.00, 0.00
160, 28637.12, 24715.75, 8106.91, -7206.14, 59691.54, 16978.70, 27158.60, 23768.29, 0.11, 0.93, 0.33
161, 28639.98, 24716.83, 8115.94, -7198.42, 59945.39, 17021.68, 27226.90, 23947.48, 0.00, 0.00, 0.00
162, 28653.10, 24739.58, 8131.09, -7180.92, 60186.27, 17034.73, 27236.94, 23943.63, 0.00, 0.00, 0.00
163, 28655.18, 24748.81, 8116.77, -7193.37, 59893.98, 16989.16, 27126.77, 23746.11, 0.00, 0.00, 0.00
164, 28645.21, 24734.64, 8107.07, -7207.10, 59654.99, 16970.79, 27142.59, 23762.54, 0.00, 0.00, 0.00
165, 28630.97, 24713.85, 8114.33, -7205.29, 59846.28, 17000.20, 27209.47, 23931.77, 0.00, 0.00, 0.00
166, 28638.93, 24717.32, 8126.83, -7193.26, 60176.06, 17021.61, 27231.33, 23984.38, 0.00, 0.00, 0.00
167, 28646.69, 24726.37, 8121.71, -7197.80, 59975.05, 16981.22, 27126.17, 23783.95, 0.00, 0.00, 0.00
168, 28643.47, 24720.27, 8116.63, -7202.07, 59690.87, 16964.26, 27149.70, 23756.35, 0.00, 0.00, 0.00
169, 28647.25, 24729.19, 8129.42, -7189.30, 59799.54, 17001.47, 27245.01, 23914.02, 0.00, 0.00, 0.00
170, 28655.63, 24732.16, 8143.01, -7178.75, 60151.02, 17033.91, 27266.15, 24003.52, 0.11, 0.93, 0.33
171, 28656.52, 24733.59, 8136.30, -7187.56, 60025.79, 16999.60, 27140.81, 23808.38, 0.00, 0.00, 0.00
172, 28653.26, 24727.46, 8126.38, -7195.63, 59712.08, 16973.00, 27129.52, 23741.60, 0.00, 0.00, 0.00
173, 28646.64, 24720.67, 8123.09, -7199.70, 59749.30, 16985.22, 27207.50, 23885.61, 0.00, 0.00, 0.00
174, 28657.35, 24733.99, 8136.17, -7187.52, 60102.32, 17025.95, 27254.11, 24029.82, 0.00, 0.00, 0.00
175, 28667.23, 24747.25, 8143.95, -7182.67, 60067.05, 17005.45, 27148.56, 23881.79, 0.00, 0.00, 0.00
176, 28655.05, 24733.14, 8131.34, -7194.22, 59731.14, 16973.53, 27108.60, 23770.52, 0.00, 0.00, 0.00
177, 28651.65, 24729.61, 8128.35, -7192.19, 59695.43, 16986.95, 27186.18, 23880.51, 0.00, 0.00, 0.00
178, 28660.70, 24741.55, 8141.53, -7178.98, 60034.68, 17029.82, 27264.77, 24046.30, 0.00, 0.00, 0.00
179, 28670.63, 24753.57, 8145.42, -7173.48, 60114.21, 17017.23, 27182.69, 23929.80, 0.00, 0.00, 0.00
180, 28662.60, 24745.46, 8130.09, -7186.69, 59776.30, 16982.03, 27113.25, 23771.88, 0.12, 0.93, 0.33
181, 28656.28, 24735.49, 8117.84, -7195.90, 59651.17, 16982.61, 27154.13, 23845.94, 0.00, 0.00, 0.00
182, 28661.60, 24737.55, 8125.28, -7188.30, 59952.45, 17022.28, 27254.22, 24025.60, 0.00, 0.00, 0.00
183, 28671.61, 24750.38, 8131.68, -7181.75, 60148.05, 17022.28, 27202.63, 23980.16, 0.00, 0.00, 0.00
184, 28661.10, 24743.18, 8115.05, -7198.51, 59828.20, 16980.31, 27084.41, 23796.31, 0.00, 0.00, 0.00
185, 28644.88, 24722.10, 8103.27, -7214.83, 59660.63, 16968.68, 27137.21, 23846.38, 0.00, 0.00, 0.00
186, 28652.19, 24732.49, 8118.31, -7198.49, 59912.80, 17011.42, 27239.47, 24039.59, 0.00, 0.00, 0.00
187, 28655.63, 24740.54, 8124.12, -7196.61, 60167.83, 17009.12, 27171.36, 24040.78, 0.00, 0.00, 0.00
188, 28660.14, 24744.01, 8123.20, -7196.10, 59886.45, 16974.94, 27080.77, 23840.95, 0.00, 0.00, 0.00
189, 28658.98, 24742.35, 8124.30, -7191.81, 59658.01, 16977.74, 27139.11, 23858.94, 0.00, 0.00, 0.00
190, 28654.67, 24745.12, 8126.29, -7189.71, 59826.97, 17005.65, 27206.32, 24019.14, 0.12, 0.93, 0.33
191, 28665.40, 24757.44, 8138.14, -7181.41, 60148.43, 17019.98, 27222.55, 24071.76, 0.00, 0.00, 0.00
192, 28666.49, 24753.53, 8135.05, -7181.73, 59945.05, 16985.65, 27130.35, 23870.50, 0.00, 0.00, 0.00
193, 28663.52, 24748.74, 8129.35, -7183.45, 59661.18, 16976.71, 27138.04, 23837.87, 0.00, 0.00, 0.00
194, 28662.04, 24747.54, 8130.63, -7181.75, 59749.12, 16994.54, 27216.69, 23978.01, 0.00, 0.00, 0.00
195, 28659.76, 24744.79, 8131.63, -7183.45, 60102.54, 17013.10, 27236.63, 24071.58, 0.00, 0.00, 0.00
196, 28660.88, 24754.11, 8126.85, -7186.71, 60009.58, 16987.06, 27140.34, 23911.13, 0.00, 0.00, 0.00
197, 28663.18, 24758.04, 8122.24, -7187.58, 59670.62, 16965.11, 27142.48, 23844.08, 0.00, 0.00, 0.00
198, 28659.16, 24746.96, 8123.54, -7187.56, 59685.04, 16977.09, 27211.08, 23968.42, 0.00, 0.00, 0.00
199, 28662.71, 24750.04, 8132.91, -7179.13, 60039.64, 17008.36, 27247.65, 24101.24, 0.00, 0.00, 0.00
200, 28671.50, 24760.05, 8134.92, -7175.60, 60037.81, 16997.67, 27157.48, 23952.24, 0.11, 0.93, 0.32
201, 28666.38, 24754.80, 8123.03, -7184.57, 59711.21, 16979.90, 27148.00, 23839.05, 0.00, 0.00, 0.00
202, 28657.19, 24746.29, 8114.60, -7191.09, 59682.06, 16985.38, 27200.71, 23951.48, 0.00, 0.00, 0.00
203, 28667.52, 24757.78, 8130.58, -7176.38, 60013.43, 17025.90, 27271.72, 24125.87, 0.00, 0.00, 0.00
204, 28678.72, 24768.91, 8130.65, -7173.61, 60095.59, 17009.07, 27186.45, 24028.53, 0.00, 0.00, 0.00
205, 28664.86, 24755.96, 8111.20, -7188.57, 59757.27, 16966.61, 27095.74, 23856.04, 0.00, 0.00, 0.00
206, 28656.14, 24745.71, 8101.26, -7190.20, 59629.07, 16968.24, 27168.39, 23933.44, 0.00, 0.00, 0.00
207, 28663.74, 24752.01, 8108.30, -7179.65, 59928.07, 17003.84, 27271.88, 24122.02, 0.00, 0.00, 0.00
208, 28671.90, 24762.22, 8110.29, -7177.77, 60109.05, 17000.20, 27212.82, 24081.61, 0.00, 0.00, 0.00
209, 28671.32, 24759.94, 8102.57, -7183.20, 59786.51, 16979.66, 27116.00, 23895.24, 0.00, 0.00, 0.00
210, 28661.87, 24747.49, 8091.58, -7194.09, 59588.61, 16970.61, 27136.89, 23916.95, 0.11, 0.93, 0.32
211, 28661.84, 24749.33, 8101.03, -7188.63, 59811.23, 17000.54, 27237.14, 24084.63, 0.00, 0.00, 0.00
212, 28676.50, 24775.99, 8120.37, -7171.02, 60108.38, 17025.84, 27246.24, 24101.28, 0.00, 0.00, 0.00
213, 28675.21, 24775.92, 8117.30, -7177.57, 59866.38, 16989.96, 27165.04, 23903.51, 0.00, 0.00, 0.00
214, 28658.58, 24747.94, 8097.54, -7197.13, 59626.41, 16958.85, 27164.92, 23887.31, 0.00, 0.00, 0.00
215, 28662.63, 24748.59, 8104.50, -7187.45, 59762.04, 16990.30, 27231.62, 24048.67, 0.00, 0.00, 0.00
216, 28671.45, 24754.91, 8118.00, -7174.93, 60098.34, 17016.63, 27264.52, 24128.39, 0.00, 0.00, 0.00
217, 28670.18, 24758.40, 8111.34, -7179.74, 59911.79, 16979.01, 27164.81, 23932.26, 0.00, 0.00, 0.00
218, 28666.07, 24755.29, 8105.21, -7183.94, 59626.79, 16966.38, 27159.56, 23899.49, 0.00, 0.00, 0.00
219, 28664.90, 24752.66, 8108.21, -7179.98, 59710.07, 16989.58, 27222.39, 24043.10, 0.00, 0.00, 0.00
220, 28672.97, 24764.14, 8122.69, -7160.18, 60066.71, 17020.83, 27278.09, 24157.03, 0.12, 0.93, 0.32
221, 28681.60, 24776.21, 8124.88, -7150.03, 59986.58, 16998.59, 27183.10, 23980.29, 0.00, 0.00, 0.00
222, 28673.15, 24767.81, 8111.34, -7154.39, 59649.38, 16979.41, 27148.96, 23886.84, 0.00, 0.00, 0.00
223, 28665.51, 24755.65, 8105.95, -7155.55, 59639.46, 16987.86, 27198.59, 24000.16, 0.00, 0.00, 0.00
224, 28667.99, 24760.50, 8114.49, -7151.69, 60000.77, 17018.73, 27243.15, 24130.58, 0.00, 0.00, 0.00
225, 28685.74, 24783.77, 8125.95, -7144.00, 60031.51, 16998.63, 27190.34, 23984.94, 0.00, 0.00, 0.00
226, 28682.63, 24778.23, 8120.01, -7149.25, 59695.45, 16996.89, 27159.47, 23863.75, 0.00, 0.00, 0.00
227, 28664.95, 24762.27, 8102.69, -7167.85, 59627.57, 16985.11, 27223.08, 23961.11, 0.00, 0.00, 0.00
228, 28672.84, 24773.04, 8113.28, -7155.73, 59948.81, 17024.94, 27288.86, 24136.22, 0.00, 0.00, 0.00
229, 28682.96, 24786.03, 8118.13, -7153.77, 60054.31, 17014.55, 27221.90, 24041.76, 0.00, 0.00, 0.00
230, 28673.29, 24776.48, 8101.21, -7170.98, 59725.60, 16971.46, 27150.93, 23864.35, 0.12, 0.93, 0.33
231, 28665.42, 24762.63, 8090.48, -7177.84, 59583.63, 16965.69, 27177.91, 23936.59, 0.00, 0.00, 0.00
232, 28663.38, 24761.53, 8095.85, -7171.42, 59850.04, 17007.31, 27251.09, 24123.37, 0.00, 0.00, 0.00
233, 28678.03, 24784.64, 8112.10, -7156.63, 60069.95, 17019.56, 27239.67, 24106.20, 0.00, 0.00, 0.00
234, 28674.40, 24784.87, 8101.79, -7167.09, 59769.70, 16968.13, 27144.16, 23905.73, 0.00, 0.00, 0.00
235, 28657.82, 24762.92, 8088.92, -7174.42, 59566.50, 16970.45, 27180.41, 23944.80, 0.00, 0.00, 0.00
236, 28664.61, 24767.34, 8100.34, -7158.95, 59798.49, 17021.63, 27280.84, 24133.09, 0.00, 0.00, 0.00
237, 28667.99, 24772.06, 8102.37, -7150.21, 60105.96, 17028.83, 27255.54, 24149.70, 0.00, 0.00, 0.00
238, 28666.87, 24773.51, 8088.78, -7156.07, 59854.01, 16982.74, 27145.95, 23930.20, 0.00, 0.00, 0.00
239, 28670.27, 24779.10, 8090.12, -7150.70, 59586.42, 16979.86, 27186.16, 23929.22, 0.11, 0.94, 0.33
240, 28653.62, 24761.31, 8082.01, -7161.19, 59720.02, 17004.20, 27238.15, 24091.80, 0.00, 0.00, 0.00
241, 28661.60, 24768.04, 8089.63, -7155.60, 60057.13, 17016.58, 27272.05, 24170.06, 0.00, 0.00, 0.00
242, 28664.01, 24773.62, 8086.88, -7162.75, 59902.85, 16975.12, 27162.26, 23972.71, 0.00, 0.00, 0.00
243, 28658.13, 24769.15, 8079.55, -7167.89, 59615.74, 16965.60, 27155.00, 23928.68, 0.00, 0.00, 0.00
244, 28649.79, 24753.19, 8076.09, -7173.23, 59676.16, 16986.07, 27228.47, 24077.05, 0.00, 0.00, 0.00
245, 28660.68, 24762.36, 8093.41, -7160.54, 60025.21, 17015.13, 27289.82, 24199.74, 0.00, 0.00, 0.00
246, 28665.89, 24771.72, 8096.09, -7157.25, 59982.60, 16988.38, 27202.81, 24028.37, 0.00, 0.00, 0.00
247, 28650.09, 24762.58, 8081.54, -7172.63, 59653.41, 16956.61, 27144.76, 23911.96, 0.00, 0.00, 0.00
248, 28640.50, 24754.27, 8077.52, -7174.66, 59628.98, 16969.64, 27201.58, 24030.67, 0.00, 0.00, 0.00
249, 28655.83, 24765.87, 8101.34, -7147.51, 59980.61, 17028.30, 27288.35, 24204.90, 0.12, 0.93, 0.33
250, 28664.64, 24774.87, 8104.43, -7141.58, 60040.76, 17022.06, 27226.55, 24095.80, 0.00, 0.00, 0.00
251, 28650.15, 24758.09, 8083.42, -7160.00, 59711.25, 16986.39, 27154.71, 23953.60, 0.00, 0.00, 0.00
252, 28637.46, 24744.41, 8075.10, -7163.87, 59619.32, 16987.57, 27235.00, 24045.20, 0.00, 0.00, 0.00
253, 28640.72, 24751.47, 8085.43, -7154.61, 59925.32, 17023.94, 27311.66, 24216.75, 0.00, 0.00, 0.00
254, 28648.86, 24762.45, 8084.69, -7155.62, 60083.25, 17012.54, 27238.10, 24141.07, 0.00, 0.00, 0.00
255, 28642.84, 24756.39, 8070.41, -7172.88, 59756.45, 16971.21, 27141.03, 23948.57, 0.00, 0.00, 0.00
0, 28636.41, 24748.10, 8064.08, -7181.70, 59601.91, 16968.95, 27186.58, 24002.60, 0.00, 0.00, 0.00
1, 28637.48, 24752.05, 8071.59, -7182.60, 59858.04, 17002.77, 27282.20, 24181.39, 0.00, 0.00, 0.00
2, 28651.05, 24767.14, 8086.59, -7165.54, 60087.10, 17009.95, 27257.30, 24172.49, 0.00, 0.00, 0.00
3, 28643.27, 24760.05, 8075.35, -7179.04, 59797.08, 16967.41, 27156.09, 23977.34, 0.12, 0.93, 0.33
4, 28637.30, 24752.95, 8069.90, -7181.44, 59589.35, 16960.37, 27197.45, 24003.34, 0.00, 0.00, 0.00
5, 28638.73, 24754.51, 8078.84, -7172.21, 59784.07, 16999.75, 27286.72, 24180.72, 0.00, 0.00, 0.00
6, 28643.38, 24758.15, 8086.03, -7170.66, 60083.12, 17013.41, 27276.95, 24226.54, 0.00, 0.00, 0.00
7, 28642.46, 24759.23, 8076.20, -7185.46, 59861.66, 16974.65, 27171.76, 24012.01, 0.00, 0.00, 0.00
8, 28631.69, 24748.37, 8059.06, -7201.89, 59590.66, 16966.25, 27178.54, 23974.37, 0.00, 0.00, 0.00
9, 28627.96, 24745.62, 8063.01, -7174.93, 59718.20, 16985.29, 27255.56, 24129.36, 0.00, 0.00, 0.00
10, 28637.68, 24757.93, 8074.43, -7154.12, 60063.45, 17011.13, 27253.59, 24226.81, 0.00, 0.00, 0.00
11, 28649.82, 24778.29, 8073.96, -7161.52, 59927.28, 16978.18, 27172.14, 24038.29, 0.00, 0.00, 0.00
12, 28639.20, 24768.66, 8065.11, -7162.82, 59616.70, 16964.44, 27178.74, 23971.98, 0.00, 0.00, 0.00
13, 28638.78, 24768.01, 8068.26, -7158.91, 59644.58, 16992.35, 27247.36, 24117.06, 0.11, 0.93, 0.33
14, 28643.85, 24764.08, 8073.29, -7157.88, 60002.83, 17020.50, 27291.86, 24250.08, 0.00, 0.00, 0.00
15, 28653.62, 24774.96, 8073.02, -7151.04, 59975.96, 16998.46, 27200.40, 24090.33, 0.00, 0.00, 0.00
16, 28647.29, 24771.48, 8062.61, -7163.87, 59649.61, 16973.56, 27149.41, 23975.20, 0.00, 0.00, 0.00
17, 28634.17, 24758.71, 8051.68, -7178.60, 59608.70, 16971.19, 27198.90, 24072.29, 0.00, 0.00, 0.00
18, 28640.14, 24767.72, 8053.96, -7167.06, 59942.04, 17009.12, 27266.11, 24232.60, 0.00, 0.00, 0.00
19, 28657.64, 24791.53, 8066.99, -7156.74, 60028.45, 17001.88, 27224.02, 24130.90, 0.00, 0.00, 0.00
20, 28653.79, 24783.79, 8060.13, -7161.14, 59685.95, 16969.40, 27160.12, 23981.39, 0.00, 0.00, 0.00
21, 28645.64, 24769.46, 8053.00, -7162.33, 59561.81, 16972.37, 27204.06, 24062.30, 0.00, 0.00, 0.00
22, 28643.18, 24767.41, 8054.32, -7164.74, 59877.37, 17000.94, 27273.06, 24238.14, 0.00, 0.00, 0.00
23, 28651.22, 24775.52, 8059.30, -7161.48, 60078.00, 16996.18, 27225.74, 24182.44, 0.11, 0.94, 0.33
24, 28651.31, 24774.83, 8055.73, -7164.94, 59758.68, 16963.74, 27154.08, 23993.32, 0.00, 0.00, 0.00
25, 28647.36, 24771.34, 8058.09, -7170.19, 59575.13, 16966.92, 27202.72, 24041.71, 0.00, 0.00, 0.00
26, 28641.99, 24767.99, 8059.23, -7175.85, 59807.43, 16995.62, 27271.92, 24199.92, 0.00, 0.00, 0.00
27, 28651.90, 24782.54, 8070.99, -7160.81, 60059.83, 17004.22, 27243.47, 24187.43, 0.00, 0.00, 0.00
28, 28650.78, 24779.57, 8070.30, -7169.75, 59786.49, 16974.05, 27156.27, 23989.37, 0.00, 0.00, 0.00
29, 28637.32, 24759.90, 8065.02, -7188.34, 59579.69, 16956.59, 27211.53, 24008.52, 0.00, 0.00, 0.00
30, 28639.02, 24772.46, 8080.69, -7179.63, 59748.38, 16991.93, 27286.88, 24179.20, 0.00, 0.00, 0.00
31, 28648.43, 24792.02, 8100.56, -7171.76, 60063.07, 17018.08, 27279.03, 24238.59, 0.00, 0.00, 0.00
32, 28651.56, 24787.82, 8104.45, -7175.96, 59860.29, 16989.87, 27155.60, 24029.20, 0.00, 0.00, 0.00
33, 28637.37, 24766.25, 8099.58, -7192.17, 59581.14, 16972.26, 27173.44, 23992.21, 0.12, 0.94, 0.33
34, 28633.14, 24766.31, 8105.46, -7194.11, 59662.70, 16991.04, 27248.52, 24130.94, 0.00, 0.00, 0.00
35, 28642.51, 24778.43, 8122.04, -7188.39, 60013.65, 17023.29, 27260.21, 24234.28, 0.00, 0.00, 0.00
36, 28640.21, 24772.37, 8116.77, -7194.18, 59924.76, 16995.48, 27150.30, 24046.27, 0.00, 0.00, 0.00
37, 28636.79, 24767.77, 8114.98, -7205.13, 59603.47, 16969.87, 27130.28, 23948.53, 0.00, 0.00, 0.00
38, 28637.90, 24773.29, 8122.29, -7192.37, 59615.30, 16998.75, 27213.87, 24081.17, 0.00, 0.00, 0.00
39, 28644.01, 24782.18, 8129.87, -7185.01, 59967.27, 17035.94, 27254.76, 24221.27, 0.00, 0.00, 0.00
40, 28652.32, 24790.16, 8134.51, -7190.82, 59957.17, 17014.30, 27147.29, 24062.10, 0.00, 0.00, 0.00
41, 28641.03, 24777.64, 8126.60, -7209.20, 59614.54, 16979.46, 27087.38, 23925.17, 0.00, 0.00, 0.00
42, 28638.80, 24770.96, 8125.66, -7209.47, 59574.68, 16988.46, 27153.52, 24027.65, 0.00, 0.00, 0.00
43, 28642.98, 24780.98, 8134.38, -7202.42, 59892.75, 17030.49, 27210.88, 24176.18, 0.11, 0.93, 0.33
44, 28649.71, 24801.25, 8147.68, -7201.89, 59989.24, 17023.51, 27135.73, 24073.30, 0.00, 0.00, 0.00
45, 28637.26, 24785.20, 8137.82, -7209.98, 59660.56, 16984.89, 27074.11, 23903.80, 0.00, 0.00, 0.00
46, 28623.71, 24766.47, 8124.28, -7221.65, 59551.26, 16985.27, 27128.63, 23978.50, 0.00, 0.00, 0.00
47, 28625.54, 24772.59, 8129.31, -7216.28, 59851.33, 17025.41, 27197.15, 24164.43, 0.00, 0.00, 0.00
48, 28637.57, 24787.17, 8139.45, -7206.60, 60044.05, 17030.82, 27156.16, 24133.60, 0.00, 0.00, 0.00
49, 28636.09, 24782.03, 8128.55, -7214.81, 59732.42, 16995.80, 27089.33, 23947.14, 0.00, 0.00, 0.00
50, 28630.59, 24771.81, 8121.95, -7220.53, 59542.77, 16993.90, 27110.86, 23987.98, 0.00, 0.00, 0.00
51, 28629.46, 24773.62, 8128.39, -7215.43, 59753.77, 17029.21, 27172.03, 24160.13, 0.00, 0.00, 0.00
52, 28638.28, 24787.14, 8140.33, -7204.57, 60023.33, 17043.27, 27180.26, 24184.99, 0.00, 0.00, 0.00
53, 28632.27, 24781.85, 8132.37, -7214.96, 59788.07, 16999.69, 27119.91, 23988.14, 0.11, 0.93, 0.33
54, 28623.64, 24777.24, 8125.04, -7218.96, 59536.73, 16985.45, 27124.47, 23988.74, 0.00, 0.00, 0.00
55, 28620.47, 24771.61, 8128.86, -7212.48, 59679.67, 17019.15, 27196.89, 24162.79, 0.00, 0.00, 0.00
56, 28628.40, 24782.18, 8142.27, -7195.72, 60005.47, 17042.91, 27236.65, 24250.44, 0.00, 0.00, 0.00
57, 28628.92, 24780.04, 8134.94, -7198.31, 59840.56, 17008.87, 27130.39, 24062.61, 0.00, 0.00, 0.00
58, 28619.73, 24769.40, 8123.70, -7203.65, 59561.21, 16987.75, 27127.19, 24019.85, 0.00, 0.00, 0.00
59, 28615.95, 24769.76, 8120.25, -7202.87, 59636.62, 17012.45, 27198.81, 24175.91, 0.00, 0.00, 0.00
60, 28623.15, 24779.66, 8132.86, -7190.06, 59981.48, 17045.62, 27233.34, 24290.06, 0.00, 0.00, 0.00
61, 28626.91, 24784.28, 8134.20, -7191.92, 59906.14, 17019.11, 27151.15, 24102.27, 0.00, 0.00, 0.00
62, 28620.69, 24778.12, 8122.60, -7205.33, 59577.81, 16994.75, 27133.88, 24000.72, 0.11, 0.93, 0.33
63, 28613.54, 24770.40, 8115.54, -7210.52, 59579.89, 17008.85, 27192.08, 24125.62, 0.00, 0.00, 0.00
64, 28620.80, 24776.48, 8131.45, -7198.11, 59929.74, 17045.80, 27253.84, 24278.31, 0.00, 0.00, 0.00
65, 28624.40, 24783.68, 8134.31, -7199.79, 59951.98, 17016.90, 27175.03, 24133.15, 0.00, 0.00, 0.00
66, 28618.70, 24777.11, 8119.90, -7210.27, 59626.61, 16982.65, 27134.97, 24003.72, 0.00, 0.00, 0.00
67, 28621.03, 24776.51, 8115.45, -7206.78, 59548.29, 16992.60, 27187.86, 24101.37, 0.00, 0.00, 0.00
68, 28627.13, 24782.23, 8127.43, -7196.50, 59867.67, 17027.40, 27262.64, 24263.11, 0.00, 0.00, 0.00
69, 28634.42, 24792.80, 8136.28, -7190.31, 59997.85, 17017.79, 27191.43, 24166.68, 0.00, 0.00, 0.00
70, 28626.39, 24785.92, 8122.87, -7199.34, 59655.98, 16984.62, 27109.83, 23983.60, 0.00, 0.00, 0.00
71, 28609.20, 24770.63, 8109.79, -7215.12, 59538.65, 16977.36, 27167.27, 24041.83, 0.00, 0.00, 0.00
72, 28615.71, 24774.20, 8124.68, -7203.34, 59821.16, 17023.91, 27241.50, 24214.38, 0.11, 0.94, 0.33
73, 28630.55, 24783.88, 8142.94, -7192.93, 60033.09, 17031.67, 27250.89, 24188.56, 0.00, 0.00, 0.00
74, 28620.98, 24781.96, 8130.36, -7209.91, 59737.43, 16988.40, 27159.51, 23987.96, 0.00, 0.00, 0.00
75, 28611.26, 24774.18, 8115.87, -7215.19, 59533.31, 16977.22, 27158.29, 24010.87, 0.00, 0.00, 0.00
76, 28614.79, 24776.80, 8125.33, -7210.54, 59730.77, 17015.02, 27256.88, 24190.31, 0.00, 0.00, 0.00
77, 28629.95, 24783.75, 8136.91, -7191.14, 60023.86, 17032.63, 27267.96, 24227.75, 0.00, 0.00, 0.00
78, 28630.66, 24784.57, 8134.05, -7192.70, 59794.42, 16996.76, 27166.13, 24022.25, 0.00, 0.00, 0.00
79, 28617.18, 24773.31, 8119.74, -7201.96, 59552.93, 16981.47, 27165.53, 24001.59, 0.00, 0.00, 0.00
80, 28615.69, 24768.21, 8121.98, -7193.22, 59677.68, 17010.26, 27238.68, 24151.21, 0.00, 0.00, 0.00
81, 28623.38, 24781.36, 8131.45, -7179.13, 60014.97, 17035.40, 27246.71, 24223.10, 0.00, 0.00, 0.00
82, 28626.84, 24789.51, 8128.17, -7177.90, 59854.64, 17007.80, 27141.03, 24020.86, 0.12, 0.94, 0.33
83, 28620.22, 24781.89, 8115.49, -7184.54, 59539.70, 16987.93, 27132.54, 23958.32, 0.00, 0.00, 0.00
84, 28611.91, 24772.17, 8112.99, -7183.20, 59595.63, 17011.46, 27229.43, 24107.18, 0.00, 0.00, 0.00
85, 28616.02, 24780.22, 8122.40, -7173.26, 59961.66, 17045.26, 27275.21, 24226.63, 0.00, 0.00, 0.00
86, 28627.00, 24792.71, 8122.60, -7170.15, 59915.55, 17017.19, 27175.16, 24055.53, 0.00, 0.00, 0.00
87, 28622.77, 24787.26, 8108.77, -7179.96, 59566.01, 16985.25, 27141.70, 23948.40, 0.00, 0.00, 0.00
88, 28613.43, 24779.12, 8100.36, -7183.52, 59531.59, 16998.84, 27218.72, 24066.75, 0.00, 0.00, 0.00
89, 28613.43, 24783.30, 8103.65, -7176.70, 59865.93, 17030.93, 27275.65, 24209.58, 0.00, 0.00, 0.00
90, 28620.27, 24787.21, 8101.88, -7178.06, 59914.07, 17009.92, 27172.14, 24074.35, 0.00, 0.00, 0.00
91, 28615.89, 24776.86, 8092.20, -7189.28, 59592.27, 16976.06, 27135.42, 23941.04, 0.00, 0.00, 0.00
92, 28610.03, 24771.83, 8086.93, -7189.89, 59502.53, 16982.50, 27208.44, 24033.33, 0.11, 0.93, 0.33
93, 28620.20, 24784.31, 8099.44, -7177.99, 59794.36, 17024.12, 27277.67, 24192.88, 0.00, 0.00, 0.00
94, 28627.71, 24793.18, 8102.86, -7176.41, 59936.09, 17016.40, 27218.50, 24105.71, 0.00, 0.00, 0.00
95, 28623.29, 24789.83, 8091.69, -7179.80, 59619.01, 16981.18, 27133.41, 23933.13, 0.00, 0.00, 0.00
96, 28615.53, 24781.56, 8084.54, -7182.22, 59463.66, 16979.93, 27175.81, 23994.04, 0.00, 0.00, 0.00
97, 28613.72, 24777.80, 8090.68, -7176.05, 59727.41, 17014.28, 27268.77, 24170.04, 0.00, 0.00, 0.00
98, 28626.30, 24792.76, 8100.45, -7165.03, 59960.90, 17023.56, 27229.14, 24156.56, 0.00, 0.00, 0.00
99, 28621.52, 24790.86, 8092.54, -7174.13, 59675.76, 16984.53, 27144.29, 23956.17, 0.00, 0.00, 0.00
100, 28611.95, 24782.81, 8084.65, -7181.44, 59459.19, 16978.09, 27173.89, 23979.20, 0.00, 0.00, 0.00
101, 28611.64, 24780.91, 8086.59, -7177.23, 59645.07, 17012.81, 27259.20, 24153.09, 0.00, 0.00, 0.00
102, 28627.53, 24803.53, 8103.40, -7163.29, 59936.83, 17032.03, 27259.54, 24197.42, 0.11, 0.93, 0.32
103, 28628.25, 24805.45, 8097.72, -7168.79, 59728.31, 17000.78, 27146.35, 23989.43, 0.00, 0.00, 0.00
104, 28613.76, 24788.93, 8081.85, -7180.70, 59475.22, 16987.82, 27140.96, 23955.59, 0.00, 0.00, 0.00
105, 28608.87, 24784.31, 8082.12, -7178.75, 59589.26, 17014.17, 27207.17, 24097.39, 0.00, 0.00, 0.00
106, 28614.32, 24787.37, 8094.19, -7171.33, 59939.42, 17041.62, 27238.13, 24185.12, 0.00, 0.00, 0.00
107, 28617.03, 24791.46, 8092.29, -7174.33, 59824.71, 17009.59, 27163.09, 23995.87, 0.00, 0.00, 0.00
108, 28610.66, 24791.39, 8086.41, -7178.93, 59519.18, 16985.16, 27153.03, 23938.25, 0.00, 0.00, 0.00
109, 28606.86, 24789.45, 8087.78, -7176.72, 59564.71, 17005.83, 27219.82, 24087.78, 0.00, 0.00, 0.00
110, 28617.45, 24793.52, 8100.07, -7166.28, 59911.14, 17035.67, 27295.26, 24218.63, 0.00, 0.00, 0.00
111, 28628.00, 24803.69, 8103.40, -7164.02, 59888.43, 17009.81, 27189.96, 24061.38, 0.00, 0.00, 0.00
112, 28620.04, 24794.30, 8088.67, -7180.72, 59562.52, 16985.31, 27134.68, 23944.71, 0.11, 0.93, 0.33
113, 28612.65, 24785.13, 8083.02, -7180.59, 59521.53, 16989.92, 27191.86, 24053.52, 0.00, 0.00, 0.00
114, 28618.26, 24794.14, 8096.79, -7165.34, 59869.64, 17030.96, 27277.60, 24221.45, 0.00, 0.00, 0.00
115, 28629.92, 24810.75, 8098.57, -7161.28, 59951.15, 17021.75, 27197.33, 24111.00, 0.00, 0.00, 0.00
116, 28622.82, 24804.51, 8082.26, -7172.58, 59606.49, 16986.21, 27140.47, 23964.76, 0.00, 0.00, 0.00
117, 28615.26, 24797.58, 8078.43, -7172.14, 59510.87, 16995.73, 27204.96, 24060.09, 0.00, 0.00, 0.00
118, 28616.60, 24793.36, 8093.12, -7163.33, 59807.70, 17035.85, 27270.29, 24230.79, 0.00, 0.00, 0.00
119, 28625.23, 24801.29, 8103.85, -7158.32, 59980.52, 17032.50, 27210.07, 24167.78, 0.00, 0.00, 0.00
120, 28620.31, 24802.19, 8094.53, -7168.56, 59671.87, 16996.42, 27126.86, 23990.46, 0.00, 0.00, 0.00
121, 28612.80, 24792.96, 8087.51, -7174.75, 59494.11, 16992.73, 27168.70, 24032.10, 0.00, 0.00, 0.00
122, 28615.19, 24794.16, 8096.87, -7168.41, 59735.79, 17025.17, 27247.22, 24205.44, 0.12, 0.93, 0.33
123, 28630.44, 24815.53, 8114.04, -7153.14, 59973.10, 17034.00, 27242.60, 24204.75, 0.00, 0.00, 0.00
124, 28625.39, 24821.59, 8104.74, -7162.26, 59719.28, 16999.75, 27152.47, 24016.14, 0.00, 0.00, 0.00
125, 28617.25, 24803.04, 8091.71, -7168.11, 59504.41, 16991.88, 27171.96, 24039.48, 0.00, 0.00, 0.00
126, 28612.85, 24788.02, 8093.07, -7164.99, 59687.25, 17022.04, 27249.10, 24205.80, 0.00, 0.00, 0.00
127, 28621.43, 24803.80, 8107.33, -7156.87, 59991.50, 17038.13, 27261.55, 24249.09, 0.00, 0.00, 0.00
128, 28625.52, 24810.82, 8103.18, -7162.97, 59789.37, 17002.84, 27155.60, 24049.58, 0.00, 0.00, 0.00
129, 28617.27, 24801.07, 8089.74, -7172.63, 59496.23, 16986.77, 27159.29, 24013.55, 0.00, 0.00, 0.00
130, 28611.64, 24796.09, 8089.39, -7171.71, 59589.61, 17011.15, 27253.97, 24160.98, 0.00, 0.00, 0.00
131, 28616.89, 24799.66, 8097.21, -7163.78, 59958.98, 17036.70, 27274.07, 24259.13, 0.00, 0.00, 0.00
132, 28624.63, 24811.87, 8096.38, -7160.85, 59847.04, 17005.97, 27158.89, 24065.27, 0.12, 0.93, 0.32
133, 28620.36, 24812.45, 8083.02, -7167.44, 59523.79, 16986.01, 27127.39, 23987.33, 0.00, 0.00, 0.00
134, 28618.05, 24803.82, 8078.50, -7173.30, 59548.80, 16999.64, 27188.46, 24110.22, 0.00, 0.00, 0.00
135, 28629.48, 24811.24, 8091.31, -7164.43, 59902.02, 17027.63, 27262.04, 24221.31, 0.00, 0.00, 0.00
136, 28635.73, 24823.67, 8099.11, -7153.79, 59906.16, 17012.34, 27185.93, 24074.37, 0.00, 0.00, 0.00
137, 28622.17, 24811.80, 8086.35, -7160.43, 59577.32, 16986.10, 27135.35, 23952.02, 0.00, 0.00, 0.00
138, 28620.76, 24811.17, 8082.73, -7161.01, 59522.56, 17002.05, 27211.97, 24061.61, 0.00, 0.00, 0.00
139, 28625.86, 24821.41, 8093.54, -7150.64, 59850.28, 17045.42, 27286.05, 24234.50, 0.00, 0.00, 0.00
140, 28626.50, 24819.18, 8094.53, -7152.09, 59964.57, 17028.10, 27217.58, 24140.22, 0.00, 0.00, 0.00
141, 28618.01, 24804.09, 8077.27, -7164.02, 59639.66, 16988.64, 27131.40, 23982.19, 0.00, 0.00, 0.00
142, 28613.65, 24801.36, 8070.19, -7167.85, 59511.23, 16991.37, 27177.55, 24058.75, 0.12, 0.93, 0.32
143, 28622.23, 24810.68, 8082.70, -7156.72, 59795.45, 17033.10, 27272.01, 24225.98, 0.00, 0.00, 0.00
144, 28633.39, 24815.78, 8087.15, -7154.57, 59982.85, 17027.92, 27223.48, 24163.60, 0.00, 0.00, 0.00
145, 28626.55, 24809.94, 8070.90, -7170.69, 59686.02, 16987.35, 27134.23, 23962.30, 0.00, 0.00, 0.00
146, 28614.34, 24801.07, 8058.34, -7179.72, 59503.54, 16986.01, 27169.77, 24000.45, 0.00, 0.00, 0.00
147, 28611.82, 24802.23, 8063.75, -7172.25, 59721.71, 17028.43, 27251.65, 24178.08, 0.00, 0.00, 0.00
148, 28620.92, 24806.61, 8072.82, -7162.08, 59998.20, 17036.52, 27250.26, 24196.88, 0.00, 0.00, 0.00
149, 28613.61, 24799.75, 8059.90, -7175.51, 59752.22, 16991.35, 27143.80, 24021.13, 0.00, 0.00, 0.00
150, 28598.79, 24786.70, 8044.68, -7188.83, 59516.79, 16974.00, 27161.08, 24047.71, 0.00, 0.00, 0.00
151, 28601.34, 24791.41, 8050.85, -7181.37, 59666.62, 17008.51, 27242.15, 24221.76, 0.12, 0.93, 0.32
152, 28611.82, 24803.37, 8063.68, -7166.55, 59995.07, 17032.23, 27255.18, 24285.24, 0.00, 0.00, 0.00
153, 28610.75, 24804.31, 8054.90, -7173.77, 59819.66, 16991.82, 27135.93, 24083.11, 0.00, 0.00, 0.00
154, 28601.56, 24787.46, 8043.14, -7184.01, 59520.97, 16972.55, 27143.40, 24040.35, 0.00, 0.00, 0.00
155, 28603.04, 24791.79, 8048.71, -7175.13, 59590.84, 17001.96, 27239.31, 24182.33, 0.00, 0.00, 0.00
