%OpenBCI Raw EEG Data
%
%Sample Rate = 250.0 Hz
%First Column = SampleIndex
%Other Columns = EEG data in microvolts followed by Accel Data (in G) interleaved with Aux Data
0, -187500.02, -187500.02, -187500.02, -14130.12, -187500.02, -187500.02, -187500.02, -43020.22, 0.03, 0.48, 0.13
1, -187500.02, -187500.02, -187500.02, -15379.25, -187500.02, -187500.02, -187500.02, -43938.41, 0.00, 0.00, 0.00
2, -187500.02, -187500.02, -187500.02, -18596.90, -187500.02, -187500.02, -187500.02, -46691.21, 0.00, 0.00, 0.00
3, -187500.02, -187500.02, -187500.02, -17669.14, -187500.02, -187500.02, -187500.02, -45909.63, 0.00, 0.00, 0.00
4, -187500.02, -187500.02, -187500.02, -14284.04, -187500.02, -187500.02, -187500.02, -42878.27, 0.00, 0.00, 0.00
5, -187500.02, -187500.02, -187500.02, -14750.85, -187500.02, -187500.02, -187500.02, -43088.29, 0.00, 0.00, 0.00
6, -187500.02, -187500.02, -187500.02, -18226.30, -187500.02, -187500.02, -187500.02, -46016.25, 0.00, 0.00, 0.00
7, -187500.02, -187500.02, -187500.02, -18270.90, -187500.02, -187500.02, -187500.02, -46075.30, 0.06, 0.95, 0.24
8, -187500.02, -187500.02, -187500.02, -14941.04, -187500.02, -187500.02, -187500.02, -43120.52, 0.00, 0.00, 0.00
9, -187500.02, -187500.02, -187500.02, -14578.28, -187500.02, -187500.02, -187500.02, -42613.38, 0.00, 0.00, 0.00
10, -187500.02, -187500.02, -187500.02, -18110.97, -187500.02, -187500.02, -187500.02, -45578.56, 0.00, 0.00, 0.00
11, -187500.02, -187500.02, -187500.02, -19106.67, -187500.02, -187500.02, -187500.02, -46493.68, 0.00, 0.00, 0.00
12, -187500.02, -187500.02, -187500.02, -15951.63, -187500.02, -187500.02, -187500.02, -43750.48, 0.00, 0.00, 0.00
13, -187500.02, -187500.02, -187500.02, -14810.29, -187500.02, -187500.02, -187500.02, -42634.59, 0.00, 0.00, 0.00
14, -187500.02, -187500.02, -187500.02, -18161.33, -187500.02, -187500.02, -187500.02, -45481.17, 0.00, 0.00, 0.00
15, -187500.02, -187500.02, -187500.02, -20026.16, -187500.02, -187500.02, -187500.02, -47177.78, 0.00, 0.00, 0.00
16, -187500.02, -187500.02, -187500.02, -17362.66, -187500.02, -187500.02, -187500.02, -44918.78, 0.00, 0.00, 0.00
17, -187500.02, -187500.02, -187500.02, -15500.53, -187500.02, -187500.02, -187500.02, -43221.93, 0.05, 0.95, 0.24
18, -187500.02, -187500.02, -187500.02, -18435.94, -187500.02, -187500.02, -187500.02, -45702.99, 0.00, 0.00, 0.00
19, -187500.02, -187500.02, -187500.02, -21084.96, -187500.02, -187500.02, -187500.02, -48070.29, 0.00, 0.00, 0.00
20, -187500.02, -187500.02, -187500.02, -19153.30, -187500.02, -187500.02, -187500.02, -46481.64, 0.00, 0.00, 0.00
21, -187500.02, -187500.02, -187500.02, -16747.07, -187500.02, -187500.02, -187500.02, -44334.77, 0.00, 0.00, 0.00
22, -187500.02, -187500.02, -187500.02, -19084.07, -187500.02, -187500.02, -187500.02, -46287.93, 0.00, 0.00, 0.00
23, -187500.02, -187500.02, -187500.02, -22125.75, -187500.02, -187500.02, -187500.02, -48969.77, 0.00, 0.00, 0.00
24, -187500.02, -187500.02, -187500.02, -20893.98, -187500.02, -187500.02, -187500.02, -48049.45, 0.00, 0.00, 0.00
25, -187500.02, -187500.02, -187500.02, -17875.67, -187500.02, -187500.02, -187500.02, -45432.64, 0.00, 0.00, 0.00
26, -187500.02, -187500.02, -187500.02, -19038.39, -187500.02, -187500.02, -187500.02, -46339.57, 0.04, 0.95, 0.24
27, -187500.02, -187500.02, -187500.02, -22190.74, -187500.02, -187500.02, -187500.02, -49065.39, 0.00, 0.00, 0.00
28, -187500.02, -187500.02, -187500.02, -21731.62, -187500.02, -187500.02, -187500.02, -48809.44, 0.00, 0.00, 0.00
29, -187500.02, -187500.02, -187500.02, -18671.55, -187500.02, -187500.02, -187500.02, -46232.46, 0.00, 0.00, 0.00
30, -187500.02, -187500.02, -187500.02, -18988.01, -187500.02, -187500.02, -187500.02, -46439.48, 0.00, 0.00, 0.00
31, -187500.02, -187500.02, -187500.02, -22209.56, -187500.02, -187500.02, -187500.02, -49220.91, 0.00, 0.00, 0.00
32, -187500.02, -187500.02, -187500.02, -22500.54, -187500.02, -187500.02, -187500.02, -49622.70, 0.00, 0.00, 0.00
33, -187500.02, -187500.02, -187500.02, -19539.67, -187500.02, -187500.02, -187500.02, -47196.69, 0.00, 0.00, 0.00
34, -187500.02, -187500.02, -187500.02, -18952.71, -187500.02, -187500.02, -187500.02, -46627.91, 0.00, 0.00, 0.00
35, -187500.02, -187500.02, -187500.02, -22016.82, -187500.02, -187500.02, -187500.02, -49225.16, 0.00, 0.00, 0.00
36, -187500.02, -187500.02, -187500.02, -22943.60, -187500.02, -187500.02, -187500.02, -50113.37, 0.04, 0.96, 0.24
37, -187500.02, -187500.02, -187500.02, -20392.99, -187500.02, -187500.02, -187500.02, -48085.62, 0.00, 0.00, 0.00
38, -187500.02, -187500.02, -187500.02, -19016.71, -187500.02, -187500.02, -187500.02, -46851.09, 0.00, 0.00, 0.00
39, -187500.02, -187500.02, -187500.02, -21692.50, -187500.02, -187500.02, -187500.02, -49068.76, 0.00, 0.00, 0.00
40, -187500.02, -187500.02, -187500.02, -23174.38, -187500.02, -187500.02, -187500.02, -50370.93, 0.00, 0.00, 0.00
41, -187500.02, -187500.02, -187500.02, -21101.79, -187500.02, -187500.02, -187500.02, -48788.58, 0.00, 0.00, 0.00
42, -187500.02, -187500.02, -187500.02, -19111.14, -187500.02, -187500.02, -187500.02, -47087.75, 0.00, 0.00, 0.00
43, -187500.02, -187500.02, -187500.02, -21301.57, -187500.02, -187500.02, -187500.02, -48893.57, 0.00, 0.00, 0.00
44, -187500.02, -187500.02, -187500.02, -23225.50, -187500.02, -187500.02, -187500.02, -50525.09, 0.00, 0.00, 0.00
45, -187500.02, -187500.02, -187500.02, -21722.52, -187500.02, -187500.02, -187500.02, -49433.25, 0.00, 0.00, 0.00
46, -187500.02, -187500.02, -187500.02, -19275.56, -187500.02, -187500.02, -187500.02, -47395.44, 0.04, 0.95, 0.23
47, -187500.02, -187500.02, -187500.02, -20787.66, -187500.02, -187500.02, -187500.02, -48627.94, 0.00, 0.00, 0.00
48, -187500.02, -187500.02, -187500.02, -23154.71, -187500.02, -187500.02, -187500.02, -50648.40, 0.00, 0.00, 0.00
49, -187500.02, -187500.02, -187500.02, -22297.59, -187500.02, -187500.02, -187500.02, -50144.86, 0.00, 0.00, 0.00
50, -187500.02, -187500.02, -187500.02, -19748.97, -187500.02, -187500.02, -187500.02, -48144.23, 0.00, 0.00, 0.00
51, -187500.02, -187500.02, -187500.02, -20497.53, -187500.02, -187500.02, -187500.02, -48757.89, 0.00, 0.00, 0.00
52, -187500.02, -187500.02, -187500.02, -23019.08, -187500.02, -187500.02, -187500.02, -50868.48, 0.00, 0.00, 0.00
53, -187500.02, -187500.02, -187500.02, -22711.58, -187500.02, -187500.02, -187500.02, -50770.82, 0.00, 0.00, 0.00
54, -187500.02, -187500.02, -187500.02, -20172.58, -187500.02, -187500.02, -187500.02, -48815.92, 0.00, 0.00, 0.00
55, -187500.02, -187500.02, -187500.02, -20174.77, -187500.02, -187500.02, -187500.02, -48792.65, 0.00, 0.00, 0.00
56, -187500.02, -187500.02, -187500.02, -22780.52, -187500.02, -187500.02, -187500.02, -50937.93, 0.04, 0.97, 0.23
57, -187500.02, -187500.02, -187500.02, -23055.02, -187500.02, -187500.02, -187500.02, -51267.57, 0.00, 0.00, 0.00
58, -187500.02, -187500.02, -187500.02, -20674.16, -187500.02, -187500.02, -187500.02, -49453.14, 0.00, 0.00, 0.00
59, -187500.02, -187500.02, -187500.02, -19949.36, -187500.02, -187500.02, -187500.02, -48808.54, 0.00, 0.00, 0.00
60, -187500.02, -187500.02, -187500.02, -22396.02, -187500.02, -187500.02, -187500.02, -50760.34, 0.00, 0.00, 0.00
61, -187500.02, -187500.02, -187500.02, -23238.30, -187500.02, -187500.02, -187500.02, -51498.84, 0.00, 0.00, 0.00
62, -187500.02, -187500.02, -187500.02, -21165.89, -187500.02, -187500.02, -187500.02, -49969.71, 0.00, 0.00, 0.00
63, -187500.02, -187500.02, -187500.02, -19810.44, -187500.02, -187500.02, -187500.02, -48838.09, 0.00, 0.00, 0.00
64, -187500.02, -187500.02, -187500.02, -21972.90, -187500.02, -187500.02, -187500.02, -50552.69, 0.00, 0.00, 0.00
65, -187500.02, -187500.02, -187500.02, -23279.54, -187500.02, -187500.02, -187500.02, -51622.63, 0.00, 0.00, 0.00
66, -187500.02, -187500.02, -187500.02, -21611.28, -187500.02, -187500.02, -187500.02, -50431.75, 0.04, 0.97, 0.24
67, -187500.02, -187500.02, -187500.02, -19844.35, -187500.02, -187500.02, -187500.02, -49020.75, 0.00, 0.00, 0.00
68, -187500.02, -187500.02, -187500.02, -21545.11, -187500.02, -187500.02, -187500.02, -50354.72, 0.00, 0.00, 0.00
69, -187500.02, -187500.02, -187500.02, -23287.23, -187500.02, -187500.02, -187500.02, -51763.87, 0.00, 0.00, 0.00
70, -187500.02, -187500.02, -187500.02, -22090.25, -187500.02, -187500.02, -187500.02, -50961.71, 0.00, 0.00, 0.00
71, -187500.02, -187500.02, -187500.02, -19943.14, -187500.02, -187500.02, -187500.02, -49270.42, 0.00, 0.00, 0.00
72, -187500.02, -187500.02, -187500.02, -21049.35, -187500.02, -187500.02, -187500.02, -50095.87, 0.00, 0.00, 0.00
73, -187500.02, -187500.02, -187500.02, -23115.10, -187500.02, -187500.02, -187500.02, -51725.94, 0.00, 0.00, 0.00
74, -187500.02, -187500.02, -187500.02, -22418.96, -187500.02, -187500.02, -187500.02, -51294.50, 0.00, 0.00, 0.00
75, -187500.02, -187500.02, -187500.02, -20124.33, -187500.02, -187500.02, -187500.02, -49512.27, 0.00, 0.00, 0.00
76, -187500.02, -187500.02, -187500.02, -20577.28, -187500.02, -187500.02, -187500.02, -49769.76, 0.04, 0.96, 0.23
77, -187500.02, -187500.02, -187500.02, -22828.73, -187500.02, -187500.02, -187500.02, -51476.82, 0.00, 0.00, 0.00
78, -187500.02, -187500.02, -187500.02, -22645.15, -187500.02, -187500.02, -187500.02, -51391.49, 0.00, 0.00, 0.00
79, -187500.02, -187500.02, -187500.02, -20329.31, -187500.02, -187500.02, -187500.02, -49622.77, 0.00, 0.00, 0.00
80, -187500.02, -187500.02, -187500.02, -20129.94, -187500.02, -187500.02, -187500.02, -49374.04, 0.00, 0.00, 0.00
81, -187500.02, -187500.02, -187500.02, -22433.04, -187500.02, -187500.02, -187500.02, -51111.57, 0.00, 0.00, 0.00
82, -187500.02, -187500.02, -187500.02, -22781.52, -187500.02, -187500.02, -187500.02, -51402.95, 0.00, 0.00, 0.00
83, -187500.02, -187500.02, -187500.02, -20616.31, -187500.02, -187500.02, -187500.02, -49801.45, 0.00, 0.00, 0.00
84, -187500.02, -187500.02, -187500.02, -19822.62, -187500.02, -187500.02, -187500.02, -49185.59, 0.00, 0.00, 0.00
85, -187500.02, -187500.02, -187500.02, -22016.56, -187500.02, -187500.02, -187500.02, -50964.30, 0.00, 0.00, 0.00
86, -187500.02, -187500.02, -187500.02, -22884.47, -187500.02, -187500.02, -187500.02, -51755.77, 0.04, 0.94, 0.22
87, -187500.02, -187500.02, -187500.02, -20994.86, -187500.02, -187500.02, -187500.02, -50442.21, 0.00, 0.00, 0.00
88, -187500.02, -187500.02, -187500.02, -19607.78, -187500.02, -187500.02, -187500.02, -49330.77, 0.00, 0.00, 0.00
89, -187500.02, -187500.02, -187500.02, -21531.57, -187500.02, -187500.02, -187500.02, -50845.90, 0.00, 0.00, 0.00
90, -187500.02, -187500.02, -187500.02, -22904.14, -187500.02, -187500.02, -187500.02, -52063.87, 0.00, 0.00, 0.00
91, -187500.02, -187500.02, -187500.02, -21384.14, -187500.02, -187500.02, -187500.02, -51193.81, 0.00, 0.00, 0.00
92, -187500.02, -187500.02, -187500.02, -19615.46, -187500.02, -187500.02, -187500.02, -50021.08, 0.00, 0.00, 0.00
93, -187500.02, -187500.02, -187500.02, -21055.32, -187500.02, -187500.02, -187500.02, -51289.25, 0.00, 0.00, 0.00
94, -187500.02, -187500.02, -187500.02, -22762.08, -187500.02, -187500.02, -187500.02, -52793.16, 0.00, 0.00, 0.00
95, -187500.02, -187500.02, -187500.02, -21667.09, -187500.02, -187500.02, -187500.02, -52259.74, 0.00, 0.00, 0.00
96, -187500.02, -187500.02, -187500.02, -19614.37, -187500.02, -187500.02, -187500.02, -50929.52, 0.04, 0.95, 0.22
97, -187500.02, -187500.02, -187500.02, -20555.76, -187500.02, -187500.02, -187500.02, -51834.97, 0.00, 0.00, 0.00
98, -187500.02, -187500.02, -187500.02, -22569.25, -187500.02, -187500.02, -187500.02, -53557.93, 0.00, 0.00, 0.00
99, -187500.02, -187500.02, -187500.02, -21965.04, -187500.02, -187500.02, -187500.02, -53318.45, 0.00, 0.00, 0.00
100, -187500.02, -187500.02, -187500.02, -19705.45, -187500.02, -187500.02, -187500.02, -51700.41, 0.00, 0.00, 0.00
101, -187500.02, -187500.02, -187500.02, -20057.83, -187500.02, -187500.02, -187500.02, -52034.79, 0.00, 0.00, 0.00
102, -187500.02, -187500.02, -187500.02, -22286.63, -187500.02, -187500.02, -187500.02, -53886.03, 0.00, 0.00, 0.00
103, -187500.02, -187500.02, -187500.02, -22188.96, -187500.02, -187500.02, -187500.02, -53984.65, 0.00, 0.00, 0.00
104, -187500.02, -187500.02, -187500.02, -19921.04, -187500.02, -187500.02, -187500.02, -52315.44, 0.00, 0.00, 0.00
105, -187500.02, -187500.02, -187500.02, -19616.25, -187500.02, -187500.02, -187500.02, -51991.61, 0.00, 0.00, 0.00
106, -187500.02, -187500.02, -187500.02, -21927.66, -187500.02, -187500.02, -187500.02, -53753.46, 0.04, 0.97, 0.21
107, -187500.02, -187500.02, -187500.02, -22422.26, -187500.02, -187500.02, -187500.02, -54187.45, 0.00, 0.00, 0.00
108, -187500.02, -187500.02, -187500.02, -20350.90, -187500.02, -187500.02, -187500.02, -52671.41, 0.00, 0.00, 0.00
109, -187500.02, -187500.02, -187500.02, -19395.28, -187500.02, -187500.02, -187500.02, -51845.05, 0.00, 0.00, 0.00
110, -187500.02, -187500.02, -187500.02, -21538.95, -187500.02, -187500.02, -187500.02, -53448.96, 0.00, 0.00, 0.00
111, -187500.02, -187500.02, -187500.02, -22536.86, -187500.02, -187500.02, -187500.02, -54230.34, 0.00, 0.00, 0.00
112, -187500.02, -187500.02, -187500.02, -20726.68, -187500.02, -187500.02, -187500.02, -52915.43, 0.00, 0.00, 0.00
113, -187500.02, -187500.02, -187500.02, -19282.00, -187500.02, -187500.02, -187500.02, -51736.71, 0.00, 0.00, 0.00
114, -187500.02, -187500.02, -187500.02, -21122.02, -187500.02, -187500.02, -187500.02, -53146.93, 0.00, 0.00, 0.00
115, -187500.02, -187500.02, -187500.02, -22592.16, -187500.02, -187500.02, -187500.02, -54354.50, 0.05, 0.98, 0.21
116, -187500.02, -187500.02, -187500.02, -21168.00, -187500.02, -187500.02, -187500.02, -53418.03, 0.00, 0.00, 0.00
117, -187500.02, -187500.02, -187500.02, -19291.86, -187500.02, -187500.02, -187500.02, -51951.98, 0.00, 0.00, 0.00
118, -187500.02, -187500.02, -187500.02, -20736.36, -187500.02, -187500.02, -187500.02, -53045.58, 0.00, 0.00, 0.00
119, -187500.02, -187500.02, -187500.02, -22622.63, -187500.02, -187500.02, -187500.02, -54571.25, 0.00, 0.00, 0.00
120, -187500.02, -187500.02, -187500.02, -21626.38, -187500.02, -187500.02, -187500.02, -53976.53, 0.00, 0.00, 0.00
121, -187500.02, -187500.02, -187500.02, -19454.02, -187500.02, -187500.02, -187500.02, -52322.57, 0.00, 0.00, 0.00
122, -187500.02, -187500.02, -187500.02, -20356.36, -187500.02, -187500.02, -187500.02, -52956.62, 0.00, 0.00, 0.00
123, -187500.02, -187500.02, -187500.02, -22493.32, -187500.02, -187500.02, -187500.02, -54559.67, 0.00, 0.00, 0.00
124, -187500.02, -187500.02, -187500.02, -21974.24, -187500.02, -187500.02, -187500.02, -54205.13, 0.00, 0.00, 0.00
125, -187500.02, -187500.02, -187500.02, -19610.84, -187500.02, -187500.02, -187500.02, -52366.74, 0.04, 0.97, 0.20
126, -187500.02, -187500.02, -187500.02, -19830.18, -187500.02, -187500.02, -187500.02, -52475.10, 0.00, 0.00, 0.00
127, -187500.02, -187500.02, -187500.02, -22195.30, -187500.02, -187500.02, -187500.02, -54366.44, 0.00, 0.00, 0.00
128, -187500.02, -187500.02, -187500.02, -22203.28, -187500.02, -187500.02, -187500.02, -54510.36, 0.00, 0.00, 0.00
129, -187500.02, -187500.02, -187500.02, -19785.58, -187500.02, -187500.02, -187500.02, -52744.15, 0.00, 0.00, 0.00
130, -187500.02, -187500.02, -187500.02, -19290.36, -187500.02, -187500.02, -187500.02, -52395.15, 0.00, 0.00, 0.00
131, -187500.02, -187500.02, -187500.02, -21678.82, -187500.02, -187500.02, -187500.02, -54449.47, 0.00, 0.00, 0.00
132, -187500.02, -187500.02, -187500.02, -22246.27, -187500.02, -187500.02, -187500.02, -55189.56, 0.00, 0.00, 0.00
133, -187500.02, -187500.02, -187500.02, -19984.16, -187500.02, -187500.02, -187500.02, -53844.95, 0.00, 0.00, 0.00
134, -187500.02, -187500.02, -187500.02, -18818.51, -187500.02, -187500.02, -187500.02, -53242.17, 0.00, 0.00, 0.00
135, -187500.02, -187500.02, -187500.02, -21091.33, -187500.02, -187500.02, -187500.02, -55207.82, 0.02, 0.97, 0.20
136, -187500.02, -187500.02, -187500.02, -22182.07, -187500.02, -187500.02, -187500.02, -56131.73, 0.00, 0.00, 0.00
137, -187500.02, -187500.02, -187500.02, -20049.54, -187500.02, -187500.02, -187500.02, -54499.72, 0.00, 0.00, 0.00
138, -187500.02, -187500.02, -187500.02, -18142.57, -187500.02, -187500.02, -187500.02, -52762.50, 0.00, 0.00, 0.00
139, -187500.02, -187500.02, -187500.02, -20215.97, -187500.02, -187500.02, -187500.02, -54257.96, 0.00, 0.00, 0.00
140, -187500.02, -187500.02, -187500.02, -21943.58, -187500.02, -187500.02, -187500.02, -55598.66, 0.00, 0.00, 0.00
141, -187500.02, -187500.02, -187500.02, -20186.11, -187500.02, -187500.02, -187500.02, -54275.82, 0.00, 0.00, 0.00
142, -187500.02, -187500.02, -187500.02, -17695.32, -187500.02, -187500.02, -187500.02, -52113.05, 0.00, 0.00, 0.00
143, -187500.02, -187500.02, -187500.02, -19317.14, -187500.02, -187500.02, -187500.02, -53329.32, 0.00, 0.00, 0.00
144, -187500.02, -187500.02, -187500.02, -21584.36, -187500.02, -187500.02, -187500.02, -55352.86, 0.00, 0.00, 0.00
145, -187500.02, -187500.02, -187500.02, -20185.39, -187500.02, -187500.02, -187500.02, -54604.75, 0.02, 0.96, 0.18
146, -187500.02, -187500.02, -187500.02, -17128.63, -187500.02, -187500.02, -187500.02, -52364.55, 0.00, 0.00, 0.00
147, -187500.02, -187500.02, -187500.02, -17963.76, -187500.02, -187500.02, -187500.02, -53383.70, 0.00, 0.00, 0.00
148, -187500.02, -187500.02, -187500.02, -20714.41, -187500.02, -187500.02, -187500.02, -56203.62, 0.00, 0.00, 0.00
149, -187500.02, -187500.02, -187500.02, -19878.57, -187500.02, -187500.02, -187500.02, -56079.45, 0.00, 0.00, 0.00
150, -187500.02, -187500.02, -187500.02, -16415.08, -187500.02, -187500.02, -187500.02, -53495.23, 0.00, 0.00, 0.00
151, -187500.02, -187500.02, -187500.02, -16408.50, -187500.02, -187500.02, -187500.02, -53649.57, 0.00, 0.00, 0.00
152, -187500.02, -187500.02, -187500.02, -19381.33, -187500.02, -187500.02, -187500.02, -56388.09, 0.00, 0.00, 0.00
153, -187500.02, -187500.02, -187500.02, -19075.74, -187500.02, -187500.02, -187500.02, -56289.51, 0.00, 0.00, 0.00
154, -187500.02, -187500.02, -187500.02, -15371.00, -187500.02, -187500.02, -187500.02, -52996.81, 0.00, 0.00, 0.00
155, -187500.02, -187500.02, -187500.02, -14362.20, -187500.02, -187500.02, -187500.02, -51753.61, 0.02, 0.99, 0.19
156, -187500.02, -187500.02, -187500.02, -17315.45, -187500.02, -187500.02, -187500.02, -54103.65, 0.00, 0.00, 0.00
157, -187500.02, -187500.02, -187500.02, -17981.96, -187500.02, -187500.02, -187500.02, -54701.58, 0.00, 0.00, 0.00
158, -187500.02, -187500.02, -187500.02, -14529.39, -187500.02, -187500.02, -187500.02, -51532.48, 0.00, 0.00, 0.00
159, -187500.02, -187463.98, -187500.02, -12887.72, -187500.02, -187500.02, -187500.02, -49648.43, 0.00, 0.00, 0.00
160, -187500.02, -187500.02, -187500.02, -15677.94, -187500.02, -187500.02, -187500.02, -51724.55, 0.00, 0.00, 0.00
161, -187500.02, -187500.02, -187500.02, -17208.38, -187500.02, -187500.02, -187500.02, -52981.81, 0.00, 0.00, 0.00
162, -187500.02, -187500.02, -187500.02, -14352.39, -187500.02, -187500.02, -187500.02, -50350.23, 0.00, 0.00, 0.00
163, -187500.02, -184017.09, -187500.02, -12198.58, -187500.02, -187500.02, -187500.02, -48034.50, 0.00, 0.00, 0.00
164, -187500.02, -186611.47, -187500.02, -14579.75, -187500.02, -187500.02, -187500.02, -49670.63, 0.00, 0.00, 0.00
165, -187500.02, -187500.02, -187500.02, -16889.11, -187500.02, -187500.02, -187500.02, -51573.21, 0.02, 0.98, 0.20
166, -187500.02, -186359.34, -187500.02, -14697.70, -187500.02, -187500.02, -187500.02, -49573.53, 0.00, 0.00, 0.00
167, -185808.08, -181245.89, -187500.02, -12016.14, -187500.02, -187500.02, -187500.02, -46888.77, 0.00, 0.00, 0.00
168, -187500.02, -182837.39, -187500.02, -13801.78, -187500.02, -187500.02, -187500.02, -48094.89, 0.00, 0.00, 0.00
169, -187500.02, -186869.25, -187500.02, -16643.42, -187500.02, -187500.02, -187500.02, -50556.34, 0.00, 0.00, 0.00
170, -187500.02, -184684.97, -187500.02, -15186.11, -187500.02, -187500.02, -187500.02, -49317.38, 0.00, 0.00, 0.00
171, -184236.30, -179219.00, -187500.02, -12089.50, -187500.02, -187500.02, -187500.02, -46319.74, 0.00, 0.00, 0.00
172, -184826.56, -179631.39, -187500.02, -13074.18, -187500.02, -187500.02, -187500.02, -46781.62, 0.00, 0.00, 0.00
173, -187500.02, -184080.89, -187500.02, -16243.44, -187500.02, -187500.02, -187500.02, -49493.42, 0.00, 0.00, 0.00
174, -187500.02, -183337.08, -187500.02, -15721.88, -187500.02, -187500.02, -187500.02, -49189.62, 0.00, 0.00, 0.00
175, -183340.06, -177915.56, -187500.02, -12548.22, -187500.02, -187500.02, -187500.02, -46286.66, 0.01, 1.00, 0.21
176, -182753.59, -177172.02, -187500.02, -12775.34, -187500.02, -187500.02, -187500.02, -46120.57, 0.00, 0.00, 0.00
177, -187500.02, -181743.91, -187500.02, -16052.84, -187500.02, -187500.02, -187500.02, -48839.83, 0.00, 0.00, 0.00
178, -187500.02, -182350.42, -187500.02, -16337.43, -187500.02, -187500.02, -187500.02, -49177.41, 0.00, 0.00, 0.00
179, -182999.27, -177174.20, -187500.02, -13139.94, -187500.02, -187500.02, -187500.02, -46230.92, 0.00, 0.00, 0.00
180, -181097.67, -175180.45, -187500.02, -12502.72, -187500.02, -187500.02, -187500.02, -45239.73, 0.00, 0.00, 0.00
181, -185624.59, -179486.42, -187500.02, -15682.45, -187500.02, -187500.02, -187500.02, -47765.70, 0.00, 0.00, 0.00
182, -187500.02, -181295.06, -187500.02, -16750.08, -187500.02, -187500.02, -187500.02, -48751.48, 0.00, 0.00, 0.00
183, -182867.03, -176631.55, -187500.02, -13769.90, -187500.02, -187500.02, -187500.02, -46026.02, 0.00, 0.00, 0.00
184, -179790.75, -173471.09, -187500.02, -12330.76, -187500.02, -187500.02, -187500.02, -44303.64, 0.00, 0.00, 0.00
185, -183680.69, -177143.53, -187500.02, -15187.16, -187500.02, -187500.02, -187500.02, -46388.63, 0.02, 0.97, 0.22
186, -186707.33, -180073.45, -187500.02, -17043.07, -187500.02, -187500.02, -187500.02, -47868.41, 0.00, 0.00, 0.00
187, -182909.39, -176315.52, -187500.02, -14560.44, -187500.02, -187500.02, -187500.02, -45447.58, 0.00, 0.00, 0.00
188, -178878.09, -172258.09, -187500.02, -12456.76, -187500.02, -187500.02, -187500.02, -43040.83, 0.00, 0.00, 0.00
189, -181916.89, -175094.48, -187500.02, -14830.11, -187500.02, -187500.02, -187500.02, -44630.06, 0.00, 0.00, 0.00
190, -185871.67, -178912.78, -187500.02, -17302.13, -187500.02, -187500.02, -187500.02, -46682.04, 0.00, 0.00, 0.00
191, -183122.14, -176182.81, -187500.02, -15389.06, -187500.02, -187500.02, -187500.02, -44898.21, 0.00, 0.00, 0.00
192, -178405.73, -171470.89, -187500.02, -12741.86, -187500.02, -187500.02, -187500.02, -42108.41, 0.00, 0.00, 0.00
193, -180333.58, -173236.19, -187500.02, -14457.08, -187500.02, -187500.02, -187500.02, -43081.69, 0.00, 0.00, 0.00
194, -185033.72, -177797.30, -187500.02, -17485.48, -187500.02, -187500.02, -187500.02, -45616.91, 0.00, 0.00, 0.00
195, -183489.20, -176270.88, -187500.02, -16265.72, -187500.02, -187500.02, -187500.02, -44570.43, 0.05, 0.95, 0.22
196, -178346.17, -171166.09, -187500.02, -13218.55, -187500.02, -187500.02, -187500.02, -41632.34, 0.00, 0.00, 0.00
197, -179033.13, -171715.13, -187500.02, -14174.04, -187500.02, -187500.02, -187500.02, -42078.03, 0.00, 0.00, 0.00
198, -184031.73, -176542.00, -187500.02, -17460.20, -187500.02, -187500.02, -187500.02, -44884.18, 0.00, 0.00, 0.00
199, -183818.66, -176316.81, -187500.02, -17082.14, -187500.02, -187500.02, -187500.02, -44669.76, 0.00, 0.00, 0.00
200, -178648.19, -171188.52, -187500.02, -13906.63, -187500.02, -187500.02, -187500.02, -41753.30, 0.00, 0.00, 0.00
201, -178061.39, -170492.33, -187500.02, -14060.54, -187500.02, -187500.02, -187500.02, -41596.66, 0.00, 0.00, 0.00
202, -183092.44, -175345.97, -187500.02, -17446.27, -187500.02, -187500.02, -187500.02, -44575.19, 0.00, 0.00, 0.00
203, -184210.42, -176451.84, -187500.02, -17916.87, -187500.02, -187500.02, -187500.02, -45241.52, 0.00, 0.00, 0.00
204, -179267.52, -171579.94, -187500.02, -14737.98, -187500.02, -187500.02, -187500.02, -42444.08, 0.07, 0.94, 0.22
205, -177376.75, -169620.31, -187500.02, -14008.96, -187500.02, -187500.02, -187500.02, -41531.71, 0.00, 0.00, 0.00
206, -182092.75, -174143.86, -187500.02, -17262.21, -187500.02, -187500.02, -187500.02, -44366.73, 0.00, 0.00, 0.00
207, -184491.83, -176487.84, -187500.02, -18570.01, -187500.02, -187500.02, -187500.02, -45846.27, 0.00, 0.00, 0.00
208, -180257.06, -172316.86, -187500.02, -15737.21, -187500.02, -187500.02, -187500.02, -43551.10, 0.00, 0.00, 0.00
209, -177274.52, -169314.14, -187500.02, -14233.68, -187500.02, -187500.02, -187500.02, -42105.34, 0.00, 0.00, 0.00
210, -181371.02, -173245.80, -187500.02, -17148.95, -187500.02, -187500.02, -187500.02, -44658.18, 0.00, 0.00, 0.00
211, -184958.42, -176773.14, -187500.02, -19243.94, -187500.02, -187500.02, -187500.02, -46873.66, 0.00, 0.00, 0.00
212, -181645.42, -173531.67, -187500.02, -16865.17, -187500.02, -187500.02, -187500.02, -45109.82, 0.00, 0.00, 0.00
213, -177824.92, -169730.00, -187500.02, -14719.99, -187500.02, -187500.02, -187500.02, -43221.32, 0.00, 0.00, 0.00
214, -181093.84, -172846.19, -187500.02, -17141.53, -187500.02, -187500.02, -187500.02, -45374.91, 0.07, 0.96, 0.22
215, -185652.38, -177315.31, -187500.02, -19888.49, -187500.02, -187500.02, -187500.02, -48170.87, 0.00, 0.00, 0.00
216, -183424.69, -175153.31, -187500.02, -18096.46, -187500.02, -187500.02, -187500.02, -46968.16, 0.00, 0.00, 0.00
217, -178865.06, -170652.30, -187500.02, -15323.73, -187500.02, -187500.02, -187500.02, -44543.25, 0.00, 0.00, 0.00
218, -181033.39, -172699.20, -187500.02, -17049.64, -187500.02, -187500.02, -187500.02, -45987.24, 0.00, 0.00, 0.00
219, -186296.28, -177841.72, -187500.02, -20266.30, -187500.02, -187500.02, -187500.02, -49104.75, 0.00, 0.00, 0.00
220, -185390.91, -176986.38, -187500.02, -19259.87, -187500.02, -187500.02, -187500.02, -48622.84, 0.00, 0.00, 0.00
221, -180386.75, -172074.47, -187500.02, -16074.77, -187500.02, -187500.02, -187500.02, -45794.21, 0.00, 0.00, 0.00
222, -181201.94, -172804.92, -187500.02, -16940.79, -187500.02, -187500.02, -187500.02, -46326.74, 0.00, 0.00, 0.00
223, -186764.73, -178230.02, -187500.02, -20401.69, -187500.02, -187500.02, -187500.02, -49478.07, 0.00, 0.00, 0.00
224, -187269.66, -178772.23, -187500.02, -20265.23, -187500.02, -187500.02, -187500.02, -49682.83, 0.05, 0.97, 0.22
225, -182393.47, -174024.58, -187500.02, -17032.70, -187500.02, -187500.02, -187500.02, -46900.80, 0.00, 0.00, 0.00
226, -181848.98, -173458.88, -187500.02, -16985.00, -187500.02, -187500.02, -187500.02, -46691.88, 0.00, 0.00, 0.00
227, -187419.34, -178897.70, -187500.02, -20507.03, -187500.02, -187500.02, -187500.02, -49879.91, 0.00, 0.00, 0.00
228, -187500.02, -180830.19, -187500.02, -21238.20, -187500.02, -187500.02, -187500.02, -50876.73, 0.00, 0.00, 0.00
229, -184907.45, -176541.17, -187500.02, -18139.71, -187500.02, -187500.02, -187500.02, -48298.59, 0.00, 0.00, 0.00
230, -183146.50, -174805.13, -187500.02, -17244.68, -187500.02, -187500.02, -187500.02, -47367.19, 0.00, 0.00, 0.00
231, -187500.02, -179844.64, -187500.02, -20535.82, -187500.02, -187500.02, -187500.02, -50312.81, 0.00, 0.00, 0.00
232, -187500.02, -182920.20, -187500.02, -21985.26, -187500.02, -187500.02, -187500.02, -51944.31, 0.00, 0.00, 0.00
233, -187500.02, -179376.70, -187500.02, -19250.46, -187500.02, -187500.02, -187500.02, -49778.23, 0.00, 0.00, 0.00
234, -184648.47, -176428.03, -187500.02, -17465.00, -187500.02, -187500.02, -187500.02, -48078.13, 0.04, 0.99, 0.24
235, -187500.02, -180554.56, -187500.02, -20234.70, -187500.02, -187500.02, -187500.02, -50482.42, 0.00, 0.00, 0.00
236, -187500.02, -184397.34, -187500.02, -22239.74, -187500.02, -187500.02, -187500.02, -52522.98, 0.00, 0.00, 0.00
237, -187500.02, -181627.00, -187500.02, -19963.26, -187500.02, -187500.02, -187500.02, -50777.21, 0.00, 0.00, 0.00
238, -185910.73, -177690.02, -187500.02, -17494.20, -187500.02, -187500.02, -187500.02, -48480.84, 0.00, 0.00, 0.00
239, -187500.02, -180574.80, -187500.02, -19562.00, -187500.02, -187500.02, -187500.02, -50134.20, 0.00, 0.00, 0.00
240, -187500.02, -185028.50, -187500.02, -22076.86, -187500.02, -187500.02, -187500.02, -52498.90, 0.00, 0.00, 0.00
241, -187500.02, -183241.55, -187500.02, -20407.83, -187500.02, -187500.02, -187500.02, -51243.81, 0.00, 0.00, 0.00
242, -186992.34, -178673.05, -187500.02, -17460.98, -187500.02, -187500.02, -187500.02, -48465.15, 0.00, 0.00, 0.00
243, -187500.02, -180242.11, -187500.02, -18745.38, -187500.02, -187500.02, -187500.02, -49204.12, 0.00, 0.00, 0.00
244, -187500.02, -185092.48, -187500.02, -21652.18, -187500.02, -187500.02, -187500.02, -51610.31, 0.04, 0.96, 0.25
245, -187500.02, -184461.39, -187500.02, -20755.54, -187500.02, -187500.02, -187500.02, -50812.42, 0.00, 0.00, 0.00
246, -187500.02, -179600.11, -187500.02, -17542.95, -187500.02, -187500.02, -187500.02, -47693.75, 0.00, 0.00, 0.00
247, -187500.02, -179839.58, -187500.02, -18015.48, -187500.02, -187500.02, -187500.02, -47645.29, 0.00, 0.00, 0.00
248, -187500.02, -184902.98, -187500.02, -21187.82, -187500.02, -187500.02, -187500.02, -50283.24, 0.00, 0.00, 0.00
249, -187500.02, -185482.23, -187500.02, -21051.74, -187500.02, -187500.02, -187500.02, -50244.02, 0.00, 0.00, 0.00
250, -187500.02, -180800.33, -187500.02, -17863.96, -187500.02, -187500.02, -187500.02, -47296.36, 0.00, 0.00, 0.00
251, -187500.02, -179730.34, -187500.02, -17490.37, -187500.02, -187500.02, -187500.02, -46565.48, 0.00, 0.00, 0.00
252, -187500.02, -184612.42, -187500.02, -20670.00, -187500.02, -187500.02, -187500.02, -49258.35, 0.00, 0.00, 0.00
253, -187500.02, -186361.16, -187500.02, -21338.74, -187500.02, -187500.02, -187500.02, -50095.22, 0.00, 0.00, 0.00
254, -187500.02, -182067.53, -187500.02, -18327.29, -187500.02, -187500.02, -187500.02, -47594.91, 0.05, 0.92, 0.24
255, -187500.02, -179676.17, -187500.02, -17066.32, -187500.02, -187500.02, -187500.02, -46281.57, 0.00, 0.00, 0.00
0, -187500.02, -183947.39, -187500.02, -19964.96, -187500.02, -187500.02, -187500.02, -48771.15, 0.00, 0.00, 0.00
1, -187500.02, -186738.89, -187500.02, -21387.76, -187500.02, -187500.02, -187500.02, -50308.61, 0.00, 0.00, 0.00
2, -187500.02, -183112.55, -187500.02, -18762.54, -187500.02, -187500.02, -187500.02, -48256.68, 0.00, 0.00, 0.00
3, -187500.02, -179606.92, -187500.02, -16756.23, -187500.02, -187500.02, -187500.02, -46375.15, 0.00, 0.00, 0.00
4, -187500.02, -183043.64, -187500.02, -19256.00, -187500.02, -187500.02, -187500.02, -48526.71, 0.00, 0.00, 0.00
5, -187500.02, -186666.83, -187500.02, -21320.23, -187500.02, -187500.02, -187500.02, -50654.95, 0.00, 0.00, 0.00
6, -187500.02, -183866.77, -187500.02, -19190.58, -187500.02, -187500.02, -187500.02, -49175.16, 0.00, 0.00, 0.00
7, -187500.02, -179541.25, -187500.02, -16604.46, -187500.02, -187500.02, -187500.02, -46975.79, 0.00, 0.00, 0.00
8, -187500.02, -181964.41, -187500.02, -18549.47, -187500.02, -187500.02, -187500.02, -48777.67, 0.06, 0.94, 0.24
9, -187500.02, -186323.06, -187500.02, -21191.82, -187500.02, -187500.02, -187500.02, -51536.35, 0.00, 0.00, 0.00
10, -187500.02, -184595.16, -187500.02, -19694.72, -187500.02, -187500.02, -187500.02, -50712.04, 0.00, 0.00, 0.00
11, -187500.02, -179717.83, -187500.02, -16631.98, -187500.02, -187500.02, -187500.02, -48076.86, 0.00, 0.00, 0.00
12, -187500.02, -180914.56, -187500.02, -17832.13, -187500.02, -187500.02, -187500.02, -49076.76, 0.00, 0.00, 0.00
13, -187500.02, -185741.47, -187500.02, -20899.95, -187500.02, -187500.02, -187500.02, -51977.19, 0.00, 0.00, 0.00
14, -187500.02, -185261.22, -187500.02, -20204.52, -187500.02, -187500.02, -187500.02, -51669.01, 0.00, 0.00, 0.00
15, -187500.02, -180244.13, -187500.02, -16945.66, -187500.02, -187500.02, -187500.02, -48819.36, 0.00, 0.00, 0.00
16, -187500.02, -180088.22, -187500.02, -17266.19, -187500.02, -187500.02, -187500.02, -48888.67, 0.00, 0.00, 0.00
17, -187500.02, -185030.45, -187500.02, -20505.20, -187500.02, -187500.02, -187500.02, -51744.44, 0.00, 0.00, 0.00
18, -187500.02, -185767.42, -187500.02, -20591.07, -187500.02, -187500.02, -187500.02, -52067.92, 0.05, 0.97, 0.25
19, -187500.02, -180903.23, -187500.02, -17323.65, -187500.02, -187500.02, -187500.02, -49225.36, 0.00, 0.00, 0.00
20, -187500.02, -179423.42, -187500.02, -16766.83, -187500.02, -187500.02, -187500.02, -48468.73, 0.00, 0.00, 0.00
21, -187500.02, -184223.11, -187500.02, -20048.44, -187500.02, -187500.02, -187500.02, -51292.71, 0.00, 0.00, 0.00
22, -187500.02, -186130.06, -187500.02, -20916.00, -187500.02, -187500.02, -187500.02, -52224.54, 0.00, 0.00, 0.00
23, -187500.02, -181686.38, -187500.02, -17805.49, -187500.02, -187500.02, -187500.02, -49438.64, 0.00, 0.00, 0.00
24, -187500.02, -179047.44, -187500.02, -16449.25, -187500.02, -187500.02, -187500.02, -47878.30, 0.00, 0.00, 0.00
25, -187500.02, -183346.25, -187500.02, -19496.40, -187500.02, -187500.02, -187500.02, -50403.09, 0.00, 0.00, 0.00
26, -187500.02, -186429.77, -187500.02, -21186.19, -187500.02, -187500.02, -187500.02, -52086.09, 0.00, 0.00, 0.00
27, -187500.02, -182851.23, -187500.02, -18555.46, -187500.02, -187500.02, -187500.02, -49892.33, 0.00, 0.00, 0.00
28, -187500.02, -179134.34, -187500.02, -16393.08, -187500.02, -187500.02, -187500.02, -47694.11, 0.05, 0.96, 0.24
29, -187500.02, -182555.03, -187500.02, -18942.79, -187500.02, -187500.02, -187500.02, -49673.82, 0.00, 0.00, 0.00
30, -187500.02, -186585.36, -187500.02, -21312.61, -187500.02, -187500.02, -187500.02, -51841.50, 0.00, 0.00, 0.00
31, -187500.02, -183999.91, -187500.02, -19235.17, -187500.02, -187500.02, -187500.02, -50147.43, 0.00, 0.00, 0.00
32, -187500.02, -179576.05, -187500.02, -16502.40, -187500.02, -187500.02, -187500.02, -47542.52, 0.00, 0.00, 0.00
33, -187500.02, -181953.56, -187500.02, -18414.28, -187500.02, -187500.02, -187500.02, -49010.04, 0.00, 0.00, 0.00
34, -187500.02, -186666.70, -187500.02, -21286.15, -187500.02, -187500.02, -187500.02, -51635.79, 0.00, 0.00, 0.00
35, -187500.02, -185304.77, -187500.02, -19963.95, -187500.02, -187500.02, -187500.02, -50628.64, 0.00, 0.00, 0.00
36, -187500.02, -180466.41, -187500.02, -16849.59, -187500.02, -187500.02, -187500.02, -47686.82, 0.00, 0.00, 0.00
37, -187500.02, -181511.67, -187500.02, -17913.98, -187500.02, -187500.02, -187500.02, -48318.95, 0.06, 0.96, 0.24
38, -187500.02, -186620.77, -187500.02, -21161.96, -187500.02, -187500.02, -187500.02, -51249.02, 0.00, 0.00, 0.00
39, -187500.02, -186456.95, -187500.02, -20590.81, -187500.02, -187500.02, -187500.02, -51011.33, 0.00, 0.00, 0.00
40, -187500.02, -181483.70, -187500.02, -17279.37, -187500.02, -187500.02, -187500.02, -48057.68, 0.00, 0.00, 0.00
41, -187500.02, -181150.88, -187500.02, -17447.55, -187500.02, -187500.02, -187500.02, -47942.61, 0.00, 0.00, 0.00
42, -187500.02, -186217.23, -187500.02, -20766.67, -187500.02, -187500.02, -187500.02, -50872.32, 0.00, 0.00, 0.00
43, -187500.02, -187235.17, -187500.02, -20979.32, -187500.02, -187500.02, -187500.02, -51311.58, 0.00, 0.00, 0.00
44, -187500.02, -182402.56, -187500.02, -17657.27, -187500.02, -187500.02, -187500.02, -48404.60, 0.00, 0.00, 0.00
45, -187500.02, -180682.94, -187500.02, -16912.25, -187500.02, -187500.02, -187500.02, -47484.22, 0.00, 0.00, 0.00
46, -187500.02, -185460.08, -187500.02, -20183.67, -187500.02, -187500.02, -187500.02, -50324.23, 0.00, 0.00, 0.00
47, -187500.02, -187500.02, -187500.02, -21233.69, -187500.02, -187500.02, -187500.02, -51467.97, 0.06, 0.97, 0.24
48, -187500.02, -183359.53, -187500.02, -18179.84, -187500.02, -187500.02, -187500.02, -48801.07, 0.00, 0.00, 0.00
49, -187500.02, -180422.53, -187500.02, -16600.86, -187500.02, -187500.02, -187500.02, -47068.05, 0.00, 0.00, 0.00
50, -187500.02, -184563.31, -187500.02, -19554.40, -187500.02, -187500.02, -187500.02, -49482.94, 0.00, 0.00, 0.00
51, -187500.02, -187500.02, -187500.02, -21390.35, -187500.02, -187500.02, -187500.02, -51248.84, 0.00, 0.00, 0.00
52, -187500.02, -184412.95, -187500.02, -18777.05, -187500.02, -187500.02, -187500.02, -48967.11, 0.00, 0.00, 0.00
53, -187500.02, -180497.69, -187500.02, -16489.96, -187500.02, -187500.02, -187500.02, -46541.83, 0.00, 0.00, 0.00
54, -187500.02, -183730.94, -187500.02, -18938.45, -187500.02, -187500.02, -187500.02, -48349.82, 0.00, 0.00, 0.00
55, -187500.02, -187500.02, -187500.02, -21438.09, -187500.02, -187500.02, -187500.02, -50580.12, 0.00, 0.00, 0.00
56, -187500.02, -185619.78, -187500.02, -19510.28, -187500.02, -187500.02, -187500.02, -48943.39, 0.00, 0.00, 0.00
57, -187500.02, -181105.45, -187500.02, -16731.55, -187500.02, -187500.02, -187500.02, -46212.50, 0.06, 0.95, 0.24
58, -187500.02, -183282.59, -187500.02, -18540.06, -187500.02, -187500.02, -187500.02, -47527.05, 0.00, 0.00, 0.00
59, -187500.02, -187500.02, -187500.02, -21584.41, -187500.02, -187500.02, -187500.02, -50321.17, 0.00, 0.00, 0.00
60, -187500.02, -187220.89, -187500.02, -20454.55, -187500.02, -187500.02, -187500.02, -49555.69, 0.00, 0.00, 0.00
61, -187500.02, -182444.30, -187500.02, -17363.44, -187500.02, -187500.02, -187500.02, -46709.94, 0.00, 0.00, 0.00
62, -187500.02, -183491.39, -187500.02, -18424.81, -187500.02, -187500.02, -187500.02, -47441.91, 0.00, 0.00, 0.00
63, -187500.02, -187500.02, -187500.02, -21794.96, -187500.02, -187500.02, -187500.02, -50578.42, 0.00, 0.00, 0.00
64, -187500.02, -187500.02, -187500.02, -21555.62, -187500.02, -187500.02, -187500.02, -50744.14, 0.00, 0.00, 0.00
65, -187500.02, -184764.08, -187500.02, -18396.18, -187500.02, -187500.02, -187500.02, -48004.88, 0.00, 0.00, 0.00
66, -187500.02, -184609.02, -187500.02, -18590.77, -187500.02, -187500.02, -187500.02, -47962.30, 0.00, 0.00, 0.00
67, -187500.02, -187500.02, -187500.02, -22117.74, -187500.02, -187500.02, -187500.02, -51131.91, 0.05, 0.96, 0.25
68, -187500.02, -187500.02, -187500.02, -22731.19, -187500.02, -187500.02, -187500.02, -51988.52, 0.00, 0.00, 0.00
69, -187500.02, -187500.02, -187500.02, -19737.13, -187500.02, -187500.02, -187500.02, -49450.33, 0.00, 0.00, 0.00
70, -187500.02, -186750.34, -187500.02, -19037.20, -187500.02, -187500.02, -187500.02, -48604.78, 0.00, 0.00, 0.00
71, -187500.02, -187500.02, -187500.02, -22354.58, -187500.02, -187500.02, -187500.02, -51479.53, 0.00, 0.00, 0.00
72, -187500.02, -187500.02, -187500.02, -23660.13, -187500.02, -187500.02, -187500.02, -52874.32, 0.00, 0.00, 0.00
73, -187500.02, -187500.02, -187500.02, -21060.17, -187500.02, -187500.02, -187500.02, -50754.11, 0.00, 0.00, 0.00
74, -187500.02, -187500.02, -187500.02, -19590.92, -187500.02, -187500.02, -187500.02, -49299.14, 0.00, 0.00, 0.00
75, -187500.02, -187500.02, -187500.02, -22319.98, -187500.02, -187500.02, -187500.02, -51623.30, 0.00, 0.00, 0.00
76, -187500.02, -187500.02, -187500.02, -24134.07, -187500.02, -187500.02, -187500.02, -53464.34, 0.00, 0.00, 0.00
77, -187500.02, -187500.02, -187500.02, -22014.17, -187500.02, -187500.02, -187500.02, -51885.44, 0.03, 0.95, 0.23
78, -187500.02, -187500.02, -187500.02, -19851.75, -187500.02, -187500.02, -187500.02, -49916.34, 0.00, 0.00, 0.00
79, -187500.02, -187500.02, -187500.02, -21922.93, -187500.02, -187500.02, -187500.02, -51628.95, 0.00, 0.00, 0.00
80, -187500.02, -187500.02, -187500.02, -24213.85, -187500.02, -187500.02, -187500.02, -53862.74, 0.00, 0.00, 0.00
81, -187500.02, -187500.02, -187500.02, -22717.22, -187500.02, -187500.02, -187500.02, -52938.03, 0.00, 0.00, 0.00
82, -187500.02, -187500.02, -187500.02, -20137.51, -187500.02, -187500.02, -187500.02, -50755.02, 0.00, 0.00, 0.00
83, -187500.02, -187500.02, -187500.02, -21549.05, -187500.02, -187500.02, -187500.02, -51902.87, 0.00, 0.00, 0.00
84, -187500.02, -187500.02, -187500.02, -24197.15, -187500.02, -187500.02, -187500.02, -54373.95, 0.00, 0.00, 0.00
85, -187500.02, -187500.02, -187500.02, -23399.86, -187500.02, -187500.02, -187500.02, -54061.45, 0.00, 0.00, 0.00
86, -187500.02, -187500.02, -187500.02, -20622.97, -187500.02, -187500.02, -187500.02, -51819.07, 0.00, 0.00, 0.00
87, -187500.02, -187500.02, -187500.02, -21187.04, -187500.02, -187500.02, -187500.02, -52272.26, 0.03, 0.99, 0.23
88, -187500.02, -187500.02, -187500.02, -23925.73, -187500.02, -187500.02, -187500.02, -54785.33, 0.00, 0.00, 0.00
89, -187500.02, -187500.02, -187500.02, -23757.82, -187500.02, -187500.02, -187500.02, -54984.33, 0.00, 0.00, 0.00
90, -187500.02, -187500.02, -187500.02, -21028.21, -187500.02, -187500.02, -187500.02, -52810.93, 0.00, 0.00, 0.00
91, -187500.02, -187500.02, -187500.02, -20822.04, -187500.02, -187500.02, -187500.02, -52510.64, 0.00, 0.00, 0.00
92, -187500.02, -187500.02, -187500.02, -23619.47, -187500.02, -187500.02, -187500.02, -54906.59, 0.00, 0.00, 0.00
93, -187500.02, -187500.02, -187500.02, -24178.84, -187500.02, -187500.02, -187500.02, -55577.30, 0.00, 0.00, 0.00
94, -187500.02, -187500.02, -187500.02, -21788.64, -187500.02, -187500.02, -187500.02, -53695.68, 0.00, 0.00, 0.00
95, -187500.02, -187500.02, -187500.02, -20948.12, -187500.02, -187500.02, -187500.02, -52837.58, 0.00, 0.00, 0.00
96, -187500.02, -187500.02, -187500.02, -23584.87, -187500.02, -187500.02, -187500.02, -54978.38, 0.00, 0.00, 0.00
97, -187500.02, -187500.02, -187500.02, -24783.21, -187500.02, -187500.02, -187500.02, -56050.93, 0.02, 0.97, 0.23
98, -187500.02, -187500.02, -187500.02, -23128.53, -187500.02, -187500.02, -187500.02, -54823.39, 0.00, 0.00, 0.00
99, -187500.02, -187500.02, -187500.02, -21896.80, -187500.02, -187500.02, -187500.02, -53639.60, 0.00, 0.00, 0.00
100, -187500.02, -187500.02, -187500.02, -24076.56, -187500.02, -187500.02, -187500.02, -55249.60, 0.00, 0.00, 0.00
101, -187500.02, -187500.02, -187500.02, -25698.69, -187500.02, -187500.02, -187500.02, -56570.45, 0.00, 0.00, 0.00
102, -187500.02, -187500.02, -187500.02, -24638.06, -187500.02, -187500.02, -187500.02, -55967.87, 0.00, 0.00, 0.00
103, -187500.02, -187500.02, -187500.02, -23168.50, -187500.02, -187500.02, -187500.02, -54938.17, 0.00, 0.00, 0.00
104, -187500.02, -187500.02, -187500.02, -24186.02, -187500.02, -187500.02, -187500.02, -55626.89, 0.00, 0.00, 0.00
105, -187500.02, -187500.02, -187500.02, -25610.09, -187500.02, -187500.02, -187500.02, -56663.64, 0.00, 0.00, 0.00
106, -187500.02, -187500.02, -187500.02, -24670.38, -187500.02, -187500.02, -187500.02, -56089.38, 0.00, 0.00, 0.00
107, -187500.02, -187500.02, -187500.02, -22902.94, -187500.02, -187500.02, -187500.02, -54880.37, 0.04, 0.96, 0.24
108, -187500.02, -187500.02, -187500.02, -23487.48, -187500.02, -187500.02, -187500.02, -55328.81, 0.00, 0.00, 0.00
109, -187500.02, -187500.02, -187500.02, -25143.86, -187500.02, -187500.02, -187500.02, -56607.22, 0.00, 0.00, 0.00
110, -187500.02, -187500.02, -187500.02, -24646.96, -187500.02, -187500.02, -187500.02, -56377.85, 0.00, 0.00, 0.00
111, -187500.02, -187500.02, -187500.02, -22753.20, -187500.02, -187500.02, -187500.02, -55069.09, 0.00, 0.00, 0.00
112, -187500.02, -187500.02, -187500.02, -22848.71, -187500.02, -187500.02, -187500.02, -55132.03, 0.00, 0.00, 0.00
113, -187500.02, -187500.02, -187500.02, -24615.66, -187500.02, -187500.02, -187500.02, -56500.58, 0.00, 0.00, 0.00
114, -187500.02, -187500.02, -187500.02, -24595.90, -187500.02, -187500.02, -187500.02, -56682.70, 0.00, 0.00, 0.00
115, -187500.02, -187500.02, -187500.02, -22718.00, -187500.02, -187500.02, -187500.02, -55440.66, 0.00, 0.00, 0.00
116, -187500.02, -187500.02, -187500.02, -22332.81, -187500.02, -187500.02, -187500.02, -55086.07, 0.00, 0.00, 0.00
117, -187500.02, -187500.02, -187500.02, -24046.07, -187500.02, -187500.02, -187500.02, -56233.41, 0.04, 0.95, 0.25
118, -187500.02, -187500.02, -187500.02, -24460.99, -187500.02, -187500.02, -187500.02, -56536.19, 0.00, 0.00, 0.00
119, -187500.02, -187500.02, -187500.02, -22700.63, -187500.02, -187500.02, -187500.02, -55246.45, 0.00, 0.00, 0.00
120, -187500.02, -187500.02, -187500.02, -21908.38, -187500.02, -187500.02, -187500.02, -54515.43, 0.00, 0.00, 0.00
121, -187500.02, -187500.02, -187500.02, -23497.43, -187500.02, -187500.02, -187500.02, -55485.77, 0.00, 0.00, 0.00
122, -187500.02, -187500.02, -187500.02, -24359.38, -187500.02, -187500.02, -187500.02, -56070.94, 0.00, 0.00, 0.00
123, -187500.02, -187500.02, -187500.02, -22827.93, -187500.02, -187500.02, -187500.02, -55052.93, 0.00, 0.00, 0.00
124, -187500.02, -187500.02, -187500.02, -21619.54, -187500.02, -187500.02, -187500.02, -54269.56, 0.00, 0.00, 0.00
125, -187500.02, -187500.02, -187500.02, -22906.09, -187500.02, -187500.02, -187500.02, -55294.68, 0.00, 0.00, 0.00
126, -187500.02, -187500.02, -187500.02, -24107.16, -187500.02, -187500.02, -187500.02, -56332.72, 0.04, 0.94, 0.24
127, -187500.02, -187500.02, -187500.02, -22842.99, -187500.02, -187500.02, -187500.02, -55592.14, 0.00, 0.00, 0.00
128, -187500.02, -187500.02, -187500.02, -21212.01, -187500.02, -187500.02, -187500.02, -54467.58, 0.00, 0.00, 0.00
129, -187500.02, -187500.02, -187500.02, -22075.86, -187500.02, -187500.02, -187500.02, -55148.52, 0.00, 0.00, 0.00
130, -187500.02, -187500.02, -187500.02, -23465.13, -187500.02, -187500.02, -187500.02, -56378.70, 0.00, 0.00, 0.00
131, -187500.02, -187500.02, -187500.02, -22450.11, -187500.02, -187500.02, -187500.02, -55983.90, 0.00, 0.00, 0.00
132, -187500.02, -187500.02, -187500.02, -20441.38, -187500.02, -187500.02, -187500.02, -54746.26, 0.00, 0.00, 0.00
133, -187500.02, -187500.02, -187500.02, -20798.72, -187500.02, -187500.02, -187500.02, -55090.28, 0.00, 0.00, 0.00
134, -187500.02, -187500.02, -187500.02, -22417.88, -187500.02, -187500.02, -187500.02, -56419.13, 0.00, 0.00, 0.00
135, -187500.02, -187500.02, -187500.02, -21864.21, -187500.02, -187500.02, -187500.02, -56236.29, 0.00, 0.00, 0.00
136, -187500.02, -187500.02, -187500.02, -19609.21, -187500.02, -187500.02, -187500.02, -54669.62, 0.04, 0.96, 0.24
137, -187500.02, -187500.02, -187500.02, -19547.29, -187500.02, -187500.02, -187500.02, -54652.65, 0.00, 0.00, 0.00
138, -187500.02, -187500.02, -187500.02, -21571.42, -187500.02, -187500.02, -187500.02, -56334.30, 0.00, 0.00, 0.00
139, -187500.02, -187500.02, -187500.02, -21538.43, -187500.02, -187500.02, -187500.02, -56410.37, 0.00, 0.00, 0.00
140, -187500.02, -187500.02, -187500.02, -19105.73, -187500.02, -187500.02, -187500.02, -54446.70, 0.00, 0.00, 0.00
141, -187500.02, -187500.02, -187500.02, -18304.94, -187500.02, -187500.02, -187500.02, -53572.30, 0.00, 0.00, 0.00
142, -187500.02, -187500.02, -187500.02, -20755.03, -187500.02, -187500.02, -187500.02, -55543.66, 0.00, 0.00, 0.00
143, -187500.02, -187500.02, -187500.02, -21410.15, -187500.02, -187500.02, -187500.02, -56215.77, 0.00, 0.00, 0.00
144, -187500.02, -187500.02, -187500.02, -18942.46, -187500.02, -187500.02, -187500.02, -54267.89, 0.00, 0.00, 0.00
145, -187500.02, -187500.02, -187500.02, -17521.96, -187500.02, -187500.02, -187500.02, -52841.04, 0.00, 0.00, 0.00
146, -187500.02, -187500.02, -187500.02, -20024.28, -187500.02, -187500.02, -187500.02, -54782.38, 0.03, 0.97, 0.23
147, -187500.02, -187500.02, -187500.02, -21464.13, -187500.02, -187500.02, -187500.02, -56029.47, 0.00, 0.00, 0.00
148, -187500.02, -187500.02, -187500.02, -19163.27, -187500.02, -187500.02, -187500.02, -54059.05, 0.00, 0.00, 0.00
149, -187500.02, -187500.02, -187500.02, -17163.14, -187500.02, -187500.02, -187500.02, -52042.97, 0.00, 0.00, 0.00
150, -187500.02, -187500.02, -187500.02, -19455.05, -187500.02, -187500.02, -187500.02, -53778.52, 0.00, 0.00, 0.00
151, -187500.02, -187500.02, -187500.02, -21687.09, -187500.02, -187500.02, -187500.02, -55749.54, 0.00, 0.00, 0.00
152, -187500.02, -187500.02, -187500.02, -19973.61, -187500.02, -187500.02, -187500.02, -54355.89, 0.00, 0.00, 0.00
153, -187500.02, -187500.02, -187500.02, -17528.84, -187500.02, -187500.02, -187500.02, -52009.98, 0.00, 0.00, 0.00
154, -187500.02, -187500.02, -187500.02, -19220.96, -187500.02, -187500.02, -187500.02, -53175.69, 0.00, 0.00, 0.00
155, -187500.02, -187500.02, -187500.02, -21976.84, -187500.02, -187500.02, -187500.02, -55556.29, 0.00, 0.00, 0.00
156, -187500.02, -187500.02, -187500.02, -20956.79, -187500.02, -187500.02, -187500.02, -54855.54, 0.03, 0.99, 0.22
157, -187500.02, -187500.02, -187500.02, -18186.03, -187500.02, -187500.02, -187500.02, -52361.98, 0.00, 0.00, 0.00
158, -187500.02, -187500.02, -187500.02, -19222.48, -187500.02, -187500.02, -187500.02, -53004.77, 0.00, 0.00, 0.00
159, -187500.02, -187500.02, -187500.02, -22297.27, -187500.02, -187500.02, -187500.02, -55677.84, 0.00, 0.00, 0.00
160, -187500.02, -187500.02, -187500.02, -21988.95, -187500.02, -187500.02, -187500.02, -55609.11, 0.00, 0.00, 0.00
161, -187500.02, -187500.02, -187500.02, -19119.32, -187500.02, -187500.02, -187500.02, -53023.36, 0.00, 0.00, 0.00
162, -187500.02, -187500.02, -187500.02, -19380.24, -187500.02, -187500.02, -187500.02, -52884.70, 0.00, 0.00, 0.00
163, -187500.02, -187500.02, -187500.02, -22532.39, -187500.02, -187500.02, -187500.02, -55450.96, 0.00, 0.00, 0.00
164, -187500.02, -187500.02, -187500.02, -22948.74, -187500.02, -187500.02, -187500.02, -55845.18, 0.00, 0.00, 0.00
165, -187500.02, -187500.02, -187500.02, -20215.10, -187500.02, -187500.02, -187500.02, -53202.18, 0.00, 0.00, 0.00
166, -187500.02, -187500.02, -187500.02, -19700.98, -187500.02, -187500.02, -187500.02, -51932.64, 0.05, 0.97, 0.21
167, -187500.02, -187500.02, -187500.02, -22611.72, -187500.02, -187500.02, -187500.02, -53491.70, 0.00, 0.00, 0.00
168, -187500.02, -187500.02, -187500.02, -23655.12, -187500.02, -187500.02, -187500.02, -54232.55, 0.00, 0.00, 0.00
169, -187500.02, -187500.02, -187500.02, -21305.37, -187500.02, -187500.02, -187500.02, -52465.78, 0.00, 0.00, 0.00
170, -187500.02, -187500.02, -187500.02, -20166.84, -187500.02, -187500.02, -187500.02, -51541.91, 0.00, 0.00, 0.00
171, -187500.02, -187500.02, -187500.02, -22878.51, -187500.02, -187500.02, -187500.02, -54211.50, 0.00, 0.00, 0.00
172, -187500.02, -187500.02, -187500.02, -24513.58, -187500.02, -187500.02, -187500.02, -56066.06, 0.00, 0.00, 0.00
173, -187500.02, -187500.02, -187500.02, -22858.05, -187500.02, -187500.02, -187500.02, -54682.73, 0.00, 0.00, 0.00
174, -187500.02, -187500.02, -187500.02, -21316.10, -187500.02, -187500.02, -187500.02, -53049.50, 0.00, 0.00, 0.00
175, -187500.02, -187500.02, -187500.02, -23431.71, -187500.02, -187500.02, -187500.02, -54992.00, 0.00, 0.00, 0.00
176, -187500.02, -187500.02, -187500.02, -25329.42, -187500.02, -187500.02, -187500.02, -57356.79, 0.06, 0.99, 0.23
177, -187500.02, -187500.02, -187500.02, -24538.15, -187500.02, -187500.02, -187500.02, -57888.56, 0.00, 0.00, 0.00
178, -187500.02, -187500.02, -187500.02, -23222.05, -187500.02, -187500.02, -187500.02, -57808.89, 0.00, 0.00, 0.00
179, -187500.02, -187500.02, -187500.02, -24281.73, -187500.02, -187500.02, -187500.02, -59105.61, 0.00, 0.00, 0.00
180, -187500.02, -187500.02, -187500.02, -26024.67, -187500.02, -187500.02, -187500.02, -60796.34, 0.00, 0.00, 0.00
181, -187500.02, -187500.02, -187500.02, -25450.50, -187500.02, -187500.02, -187500.02, -60878.80, 0.00, 0.00, 0.00
182, -187500.02, -187500.02, -187500.02, -23777.81, -187500.02, -187500.02, -187500.02, -60126.39, 0.00, 0.00, 0.00
183, -187500.02, -187500.02, -187500.02, -24231.73, -187500.02, -187500.02, -187500.02, -60779.00, 0.00, 0.00, 0.00
184, -187500.02, -187500.02, -187500.02, -26042.53, -187500.02, -187500.02, -187500.02, -62296.34, 0.00, 0.00, 0.00
185, -187500.02, -187500.02, -187500.02, -25896.13, -187500.02, -187500.02, -187500.02, -62216.44, 0.00, 0.00, 0.00
186, -187500.02, -187500.02, -187500.02, -24103.74, -187500.02, -187500.02, -187500.02, -60714.69, 0.04, 0.97, 0.24
187, -187500.02, -187500.02, -187500.02, -24016.86, -187500.02, -187500.02, -187500.02, -60345.98, 0.00, 0.00, 0.00
188, -187500.02, -187500.02, -187500.02, -25808.69, -187500.02, -187500.02, -187500.02, -61496.96, 0.00, 0.00, 0.00
189, -187500.02, -187500.02, -187500.02, -26118.95, -187500.02, -187500.02, -187500.02, -61776.69, 0.00, 0.00, 0.00
190, -187500.02, -187500.02, -187500.02, -24377.66, -187500.02, -187500.02, -187500.02, -60563.37, 0.00, 0.00, 0.00
191, -187500.02, -187500.02, -187500.02, -23759.70, -187500.02, -187500.02, -187500.02, -59966.27, 0.00, 0.00, 0.00
192, -187500.02, -187500.02, -187500.02, -25398.53, -187500.02, -187500.02, -187500.02, -60950.61, 0.00, 0.00, 0.00
193, -187500.02, -187500.02, -187500.02, -26148.39, -187500.02, -187500.02, -187500.02, -61514.17, 0.00, 0.00, 0.00
194, -187500.02, -187500.02, -187500.02, -24595.10, -187500.02, -187500.02, -187500.02, -60678.43, 0.00, 0.00, 0.00
195, -187500.02, -187500.02, -187500.02, -23580.55, -187500.02, -187500.02, -187500.02, -60340.48, 0.00, 0.00, 0.00
196, -187500.02, -187500.02, -187500.02, -25021.66, -187500.02, -187500.02, -187500.02, -61800.29, 0.03, 0.96, 0.23
197, -187500.02, -187500.02, -187500.02, -26158.83, -187500.02, -187500.02, -187500.02, -63102.64, 0.00, 0.00, 0.00
198, -187500.02, -187500.02, -187500.02, -24916.47, -187500.02, -187500.02, -187500.02, -62816.20, 0.00, 0.00, 0.00
199, -187500.02, -187500.02, -187500.02, -23637.64, -187500.02, -187500.02, -187500.02, -62622.90, 0.00, 0.00, 0.00
200, -187500.02, -187500.02, -187500.02, -24810.59, -187500.02, -187500.02, -187500.02, -64248.95, 0.00, 0.00, 0.00
201, -187500.02, -187500.02, -187500.02, -26351.25, -187500.02, -187500.02, -187500.02, -66054.70, 0.00, 0.00, 0.00
202, -187500.02, -187500.02, -187500.02, -25492.19, -187500.02, -187500.02, -187500.02, -65807.98, 0.00, 0.00, 0.00
203, -187500.02, -187500.02, -187500.02, -23833.60, -187500.02, -187500.02, -187500.02, -64615.23, 0.00, 0.00, 0.00
204, -187500.02, -187500.02, -187500.02, -24432.96, -187500.02, -187500.02, -187500.02, -64850.63, 0.00, 0.00, 0.00
205, -187500.02, -187500.02, -187500.02, -25999.97, -187500.02, -187500.02, -187500.02, -65843.97, 0.02, 0.95, 0.25
206, -187500.02, -187500.02, -187500.02, -25395.63, -187500.02, -187500.02, -187500.02, -65456.97, 0.00, 0.00, 0.00
207, -187500.02, -187500.02, -187500.02, -23475.39, -187500.02, -187500.02, -187500.02, -64136.05, 0.00, 0.00, 0.00
208, -187500.02, -187500.02, -187500.02, -23553.44, -187500.02, -187500.02, -187500.02, -64077.51, 0.00, 0.00, 0.00
209, -187500.02, -187500.02, -187500.02, -25173.56, -187500.02, -187500.02, -187500.02, -64999.70, 0.00, 0.00, 0.00
210, -187500.02, -187500.02, -187500.02, -25005.10, -187500.02, -187500.02, -187500.02, -64703.47, 0.00, 0.00, 0.00
211, -187500.02, -187500.02, -187500.02, -23031.82, -187500.02, -187500.02, -187500.02, -63200.79, 0.00, 0.00, 0.00
212, -187500.02, -187500.02, -187500.02, -22614.55, -187500.02, -187500.02, -187500.02, -62875.34, 0.00, 0.00, 0.00
213, -187500.02, -187500.02, -187500.02, -24237.56, -187500.02, -187500.02, -187500.02, -64155.67, 0.00, 0.00, 0.00
214, -187500.02, -187500.02, -187500.02, -24527.93, -187500.02, -187500.02, -187500.02, -64660.40, 0.00, 0.00, 0.00
215, -187500.02, -187500.02, -187500.02, -22672.51, -187500.02, -187500.02, -187500.02, -63632.64, 0.04, 0.97, 0.27
216, -187500.02, -187500.02, -187500.02, -21853.72, -187500.02, -187500.02, -187500.02, -63236.75, 0.00, 0.00, 0.00
217, -187500.02, -187500.02, -187500.02, -23383.12, -187500.02, -187500.02, -187500.02, -64524.81, 0.00, 0.00, 0.00
218, -187500.02, -187500.02, -187500.02, -24160.56, -187500.02, -187500.02, -187500.02, -65434.84, 0.00, 0.00, 0.00
219, -187500.02, -187500.02, -187500.02, -22551.70, -187500.02, -187500.02, -187500.02, -64761.76, 0.00, 0.00, 0.00
220, -187500.02, -187500.02, -187500.02, -21393.46, -187500.02, -187500.02, -187500.02, -64406.13, 0.00, 0.00, 0.00
221, -187500.02, -187500.02, -187500.02, -22700.52, -187500.02, -187500.02, -187500.02, -65674.54, 0.00, 0.00, 0.00
222, -187500.02, -187500.02, -187500.02, -23868.78, -187500.02, -187500.02, -187500.02, -66680.82, 0.00, 0.00, 0.00
223, -187500.02, -187500.02, -187500.02, -22609.44, -187500.02, -187500.02, -187500.02, -65751.81, 0.00, 0.00, 0.00
224, -187500.02, -187500.02, -187500.02, -21113.37, -187500.02, -187500.02, -187500.02, -64448.62, 0.00, 0.00, 0.00
225, -187500.02, -187500.02, -187500.02, -22092.29, -187500.02, -187500.02, -187500.02, -64820.41, 0.05, 0.96, 0.29
226, -187500.02, -187500.02, -187500.02, -23574.83, -187500.02, -187500.02, -187500.02, -65627.34, 0.00, 0.00, 0.00
227, -187500.02, -187500.02, -187500.02, -22728.68, -187500.02, -187500.02, -187500.02, -64833.02, 0.00, 0.00, 0.00
228, -187500.02, -187500.02, -187500.02, -21014.21, -187500.02, -187500.02, -187500.02, -63345.98, 0.00, 0.00, 0.00
229, -187500.02, -187500.02, -187500.02, -21547.42, -187500.02, -187500.02, -187500.02, -63363.82, 0.00, 0.00, 0.00
230, -187500.02, -187500.02, -187500.02, -23205.40, -187500.02, -187500.02, -187500.02, -64228.43, 0.00, 0.00, 0.00
231, -187500.02, -187500.02, -187500.02, -22746.74, -187500.02, -187500.02, -187500.02, -63634.61, 0.00, 0.00, 0.00
232, -187500.02, -187500.02, -187500.02, -20896.82, -187500.02, -187500.02, -187500.02, -61992.09, 0.00, 0.00, 0.00
233, -187500.02, -187500.02, -187500.02, -20993.79, -187500.02, -187500.02, -187500.02, -61689.29, 0.00, 0.00, 0.00
234, -187500.02, -187500.02, -187500.02, -22707.79, -187500.02, -187500.02, -187500.02, -62673.98, 0.00, 0.00, 0.00
235, -187500.02, -187500.02, -187500.02, -22713.75, -187500.02, -187500.02, -187500.02, -62639.75, 0.06, 0.92, 0.27
236, -187500.02, -187500.02, -187500.02, -20909.77, -187500.02, -187500.02, -187500.02, -61372.30, 0.00, 0.00, 0.00
237, -187500.02, -187500.02, -187500.02, -20561.50, -187500.02, -187500.02, -187500.02, -61150.77, 0.00, 0.00, 0.00
238, -187500.02, -187500.02, -187500.02, -22217.28, -187500.02, -187500.02, -187500.02, -62500.57, 0.00, 0.00, 0.00
239, -187500.02, -187500.02, -187500.02, -22634.11, -187500.02, -187500.02, -187500.02, -63115.22, 0.00, 0.00, 0.00
240, -187500.02, -187500.02, -187500.02, -20920.83, -187500.02, -187500.02, -187500.02, -62182.91, 0.00, 0.00, 0.00
241, -187500.02, -187500.02, -187500.02, -20134.05, -187500.02, -187500.02, -187500.02, -61798.88, 0.00, 0.00, 0.00
242, -187500.02, -187500.02, -187500.02, -21656.43, -187500.02, -187500.02, -187500.02, -63123.40, 0.00, 0.00, 0.00
243, -187500.02, -187500.02, -187500.02, -22541.98, -187500.02, -187500.02, -187500.02, -64218.19, 0.00, 0.00, 0.00
244, -187500.02, -187500.02, -187500.02, -21069.74, -187500.02, -187500.02, -187500.02, -63726.41, 0.00, 0.00, 0.00
245, -187500.02, -187500.02, -187500.02, -19913.75, -187500.02, -187500.02, -187500.02, -63399.94, 0.06, 0.95, 0.26
246, -187500.02, -187500.02, -187500.02, -21203.27, -187500.02, -187500.02, -187500.02, -64725.38, 0.00, 0.00, 0.00
247, -187500.02, -187500.02, -187500.02, -22413.57, -187500.02, -187500.02, -187500.02, -65911.67, 0.00, 0.00, 0.00
248, -187500.02, -187500.02, -187500.02, -21236.71, -187500.02, -187500.02, -187500.02, -65275.38, 0.00, 0.00, 0.00
249, -187500.02, -187500.02, -187500.02, -19742.85, -187500.02, -187500.02, -187500.02, -64282.65, 0.00, 0.00, 0.00
250, -187500.02, -187500.02, -187500.02, -20666.62, -187500.02, -187500.02, -187500.02, -65058.53, 0.00, 0.00, 0.00
251, -187500.02, -187500.02, -187500.02, -22199.01, -187500.02, -187500.02, -187500.02, -66468.43, 0.00, 0.00, 0.00
252, -187500.02, -187500.02, -187500.02, -21444.29, -187500.02, -187500.02, -187500.02, -66307.66, 0.00, 0.00, 0.00
253, -187500.02, -187500.02, -187500.02, -19803.58, -187500.02, -187500.02, -187500.02, -65356.01, 0.00, 0.00, 0.00
254, -187500.02, -187500.02, -187500.02, -20338.34, -187500.02, -187500.02, -187500.02, -65846.13, 0.00, 0.00, 0.00
255, -187500.02, -187500.02, -187500.02, -22019.84, -187500.02, -187500.02, -187500.02, -67267.84, 0.05, 0.96, 0.24
0, -187500.02, -187500.02, -187500.02, -21708.77, -187500.02, -187500.02, -187500.02, -67358.70, 0.00, 0.00, 0.00
1, -187500.02, -187500.02, -187500.02, -19961.58, -187500.02, -187500.02, -187500.02, -66315.21, 0.00, 0.00, 0.00
2, -187500.02, -187500.02, -187500.02, -20069.50, -187500.02, -187500.02, -187500.02, -66489.30, 0.00, 0.00, 0.00
3, -187500.02, -187500.02, -187500.02, -21844.90, -187500.02, -187500.02, -187500.02, -67938.91, 0.00, 0.00, 0.00
4, -187500.02, -187500.02, -187500.02, -22015.06, -187500.02, -187500.02, -187500.02, -68381.27, 0.00, 0.00, 0.00
5, -187500.02, -187500.02, -187500.02, -20302.29, -187500.02, -187500.02, -187500.02, -67444.20, 0.00, 0.00, 0.00
6, -187500.02, -187500.02, -187500.02, -19937.91, -187500.02, -187500.02, -187500.02, -67423.30, 0.00, 0.00, 0.00
7, -187500.02, -187500.02, -187500.02, -21639.64, -187500.02, -187500.02, -187500.02, -68982.24, 0.00, 0.00, 0.00
8, -187500.02, -187500.02, -187500.02, -22214.26, -187500.02, -187500.02, -187500.02, -69802.39, 0.00, 0.00, 0.00
9, -187500.02, -187500.02, -187500.02, -20631.78, -187500.02, -187500.02, -187500.02, -68926.50, 0.04, 0.99, 0.25
10, -187500.02, -187500.02, -187500.02, -19859.70, -187500.02, -187500.02, -187500.02, -68441.30, 0.00, 0.00, 0.00
11, -187500.02, -187500.02, -187500.02, -21408.66, -187500.02, -187500.02, -187500.02, -69644.57, 0.00, 0.00, 0.00
12, -187500.02, -187500.02, -187500.02, -22391.46, -187500.02, -187500.02, -187500.02, -70611.80, 0.00, 0.00, 0.00
13, -187500.02, -187500.02, -187500.02, -21002.17, -187500.02, -187500.02, -187500.02, -69910.13, 0.00, 0.00, 0.00
14, -187500.02, -187500.02, -187500.02, -19747.81, -187500.02, -187500.02, -187500.02, -69148.07, 0.00, 0.00, 0.00
15, -187500.02, -187500.02, -187500.02, -20948.10, -187500.02, -187500.02, -187500.02, -70081.32, 0.00, 0.00, 0.00
16, -187500.02, -187500.02, -187500.02, -22233.73, -187500.02, -187500.02, -187500.02, -71147.59, 0.00, 0.00, 0.00
17, -187500.02, -187500.02, -187500.02, -21118.17, -187500.02, -187500.02, -187500.02, -70497.13, 0.00, 0.00, 0.00
18, -187500.02, -187500.02, -187500.02, -19443.94, -187500.02, -187500.02, -187500.02, -69404.22, 0.00, 0.00, 0.00
19, -187500.02, -187500.02, -187500.02, -20014.13, -187500.02, -187500.02, -187500.02, -69971.59, 0.02, 0.95, 0.26
20, -187500.02, -187500.02, -187500.02, -21296.63, -187500.02, -187500.02, -187500.02, -71181.50, 0.00, 0.00, 0.00
21, -187500.02, -187500.02, -187500.02, -20385.19, -187500.02, -187500.02, -187500.02, -70883.91, 0.00, 0.00, 0.00
22, -187500.02, -187500.02, -187500.02, -18446.58, -187500.02, -187500.02, -187500.02, -69720.27, 0.00, 0.00, 0.00
23, -187500.02, -187500.02, -187500.02, -18600.38, -187500.02, -187500.02, -187500.02, -69978.34, 0.00, 0.00, 0.00
24, -187500.02, -187500.02, -187500.02, -20108.30, -187500.02, -187500.02, -187500.02, -71321.73, 0.00, 0.00, 0.00
25, -187500.02, -187500.02, -187500.02, -19728.81, -187500.02, -187500.02, -187500.02, -71403.12, 0.00, 0.00, 0.00
26, -187500.02, -187500.02, -187500.02, -17788.41, -187500.02, -187500.02, -187500.02, -70307.23, 0.00, 0.00, 0.00
27, -187500.02, -187500.02, -187500.02, -17569.45, -187500.02, -187500.02, -187500.02, -70371.91, 0.00, 0.00, 0.00
28, -187500.02, -187500.02, -187500.02, -19138.84, -187500.02, -187500.02, -187500.02, -71776.79, 0.00, 0.00, 0.00
29, -187500.02, -187500.02, -187500.02, -19245.01, -187500.02, -187500.02, -187500.02, -72183.55, 0.01, 0.95, 0.27
30, -187500.02, -187500.02, -187500.02, -17439.79, -187500.02, -187500.02, -187500.02, -71126.83, 0.00, 0.00, 0.00
31, -187500.02, -187500.02, -187500.02, -16858.22, -187500.02, -187500.02, -187500.02, -70858.89, 0.00, 0.00, 0.00
32, -187500.02, -187500.02, -187500.02, -18399.46, -187500.02, -187500.02, -187500.02, -72161.06, 0.00, 0.00, 0.00
33, -187500.02, -187500.02, -187500.02, -18966.21, -187500.02, -187500.02, -187500.02, -72857.45, 0.00, 0.00, 0.00
34, -187500.02, -187500.02, -187500.02, -17344.86, -187500.02, -187500.02, -187500.02, -71900.02, 0.00, 0.00, 0.00
35, -187500.02, -187500.02, -187500.02, -16364.16, -187500.02, -187500.02, -187500.02, -71224.48, 0.00, 0.00, 0.00
36, -187500.02, -187500.02, -187500.02, -17705.15, -187500.02, -187500.02, -187500.02, -72231.16, 0.00, 0.00, 0.00
37, -187500.02, -187500.02, -187500.02, -18692.36, -187500.02, -187500.02, -187500.02, -73142.51, 0.00, 0.00, 0.00
38, -187500.02, -187500.02, -187500.02, -17331.30, -187500.02, -187500.02, -187500.02, -72327.31, 0.02, 0.95, 0.26
39, -187500.02, -187500.02, -187500.02, -16002.53, -187500.02, -187500.02, -187500.02, -71368.05, 0.00, 0.00, 0.00
40, -187500.02, -187500.02, -187500.02, -17083.75, -187500.02, -187500.02, -187500.02, -72127.87, 0.00, 0.00, 0.00
41, -187500.02, -187500.02, -187500.02, -18387.48, -187500.02, -187500.02, -187500.02, -73147.22, 0.00, 0.00, 0.00
42, -187500.02, -187500.02, -187500.02, -17366.95, -187500.02, -187500.02, -187500.02, -72464.58, 0.00, 0.00, 0.00
43, -187500.02, -187500.02, -187500.02, -15764.80, -187500.02, -187500.02, -187500.02, -71234.88, 0.00, 0.00, 0.00
44, -187500.02, -187500.02, -187500.02, -16472.70, -187500.02, -187500.02, -187500.02, -71711.84, 0.00, 0.00, 0.00
45, -187500.02, -187500.02, -187500.02, -18025.85, -187500.02, -187500.02, -187500.02, -73000.02, 0.00, 0.00, 0.00
46, -187500.02, -187500.02, -187500.02, -17459.08, -187500.02, -187500.02, -187500.02, -72823.66, 0.00, 0.00, 0.00
47, -187500.02, -187500.02, -187500.02, -15731.81, -187500.02, -187500.02, -187500.02, -71639.80, 0.00, 0.00, 0.00
48, -187500.02, -187500.02, -187500.02, -15991.51, -187500.02, -187500.02, -187500.02, -71749.23, 0.02, 0.95, 0.25
49, -187500.02, -187500.02, -187500.02, -17659.76, -187500.02, -187500.02, -187500.02, -72978.53, 0.00, 0.00, 0.00
50, -187500.02, -187500.02, -187500.02, -17502.73, -187500.02, -187500.02, -187500.02, -73031.93, 0.00, 0.00, 0.00
51, -187500.02, -187500.02, -187500.02, -15723.29, -187500.02, -187500.02, -187500.02, -71893.06, 0.00, 0.00, 0.00
52, -187500.02, -187500.02, -187500.02, -15540.25, -187500.02, -187500.02, -187500.02, -71821.88, 0.00, 0.00, 0.00
53, -187500.02, -187500.02, -187500.02, -17218.98, -187500.02, -187500.02, -187500.02, -73143.35, 0.00, 0.00, 0.00
54, -187500.02, -187500.02, -187500.02, -17547.21, -187500.02, -187500.02, -187500.02, -73604.88, 0.00, 0.00, 0.00
55, -187500.02, -187500.02, -187500.02, -15827.14, -187500.02, -187500.02, -187500.02, -72550.43, 0.00, 0.00, 0.00
56, -187500.02, -187500.02, -187500.02, -15207.28, -187500.02, -187500.02, -187500.02, -72262.49, 0.00, 0.00, 0.00
57, -187500.02, -187500.02, -187500.02, -16813.45, -187500.02, -187500.02, -187500.02, -73716.99, 0.00, 0.00, 0.00
58, -187500.02, -187500.02, -187500.02, -17561.68, -187500.02, -187500.02, -187500.02, -74687.23, 0.03, 0.96, 0.26
59, -187500.02, -187500.02, -187500.02, -16046.07, -187500.02, -187500.02, -187500.02, -73941.80, 0.00, 0.00, 0.00
60, -187500.02, -187500.02, -187500.02, -15033.00, -187500.02, -187500.02, -187500.02, -73350.80, 0.00, 0.00, 0.00
61, -187500.02, -187500.02, -187500.02, -16404.10, -187500.02, -187500.02, -187500.02, -74445.14, 0.00, 0.00, 0.00
62, -187500.02, -187500.02, -187500.02, -17529.11, -187500.02, -187500.02, -187500.02, -75485.77, 0.00, 0.00, 0.00
63, -187500.02, -187500.02, -187500.02, -16266.93, -187500.02, -187500.02, -187500.02, -74812.72, 0.00, 0.00, 0.00
64, -187500.02, -187500.02, -187500.02, -14916.30, -187500.02, -187500.02, -187500.02, -73969.99, 0.00, 0.00, 0.00
65, -187500.02, -187500.02, -187500.02, -15973.12, -187500.02, -187500.02, -187500.02, -74820.20, 0.00, 0.00, 0.00
66, -187500.02, -187500.02, -187500.02, -17398.11, -187500.02, -187500.02, -187500.02, -75994.86, 0.00, 0.00, 0.00
67, -187500.02, -187500.02, -187500.02, -16517.18, -187500.02, -187500.02, -187500.02, -75489.41, 0.00, 0.00, 0.00
68, -187500.02, -187500.02, -187500.02, -14946.81, -187500.02, -187500.02, -187500.02, -74389.58, 0.04, 0.97, 0.26
69, -187500.02, -187500.02, -187500.02, -15617.19, -187500.02, -187500.02, -187500.02, -74895.24, 0.00, 0.00, 0.00
70, -187500.02, -187500.02, -187500.02, -17248.77, -187500.02, -187500.02, -187500.02, -76252.41, 0.00, 0.00, 0.00
71, -187500.02, -187500.02, -187500.02, -16793.04, -187500.02, -187500.02, -187500.02, -76163.21, 0.00, 0.00, 0.00
72, -187500.02, -187500.02, -187500.02, -15086.85, -187500.02, -187500.02, -187500.02, -75030.52, 0.00, 0.00, 0.00
73, -187500.02, -187500.02, -187500.02, -15334.10, -187500.02, -187500.02, -187500.02, -75193.08, 0.00, 0.00, 0.00
74, -187500.02, -187500.02, -187500.02, -17045.75, -187500.02, -187500.02, -187500.02, -76477.27, 0.00, 0.00, 0.00
75, -187500.02, -187500.02, -187500.02, -17029.10, -187500.02, -187500.02, -187500.02, -76635.13, 0.00, 0.00, 0.00
76, -187500.02, -187500.02, -187500.02, -15306.12, -187500.02, -187500.02, -187500.02, -75521.53, 0.00, 0.00, 0.00
77, -187500.02, -187500.02, -187500.02, -15097.06, -187500.02, -187500.02, -187500.02, -75427.32, 0.00, 0.00, 0.00
78, -187500.02, -187500.02, -187500.02, -16802.61, -187500.02, -187500.02, -187500.02, -76780.38, 0.03, 0.97, 0.26
79, -187500.02, -187500.02, -187500.02, -17226.36, -187500.02, -187500.02, -187500.02, -77296.33, 0.00, 0.00, 0.00
80, -187500.02, -187500.02, -187500.02, -15608.27, -187500.02, -187500.02, -187500.02, -76250.34, 0.00, 0.00, 0.00
81, -187500.02, -187500.02, -187500.02, -14976.29, -187500.02, -187500.02, -187500.02, -75740.27, 0.00, 0.00, 0.00
82, -187500.02, -187500.02, -187500.02, -16533.70, -187500.02, -187500.02, -187500.02, -76797.22, 0.00, 0.00, 0.00
83, -187500.02, -187500.02, -187500.02, -17355.93, -187500.02, -187500.02, -187500.02, -77443.96, 0.00, 0.00, 0.00
84, -187500.02, -187500.02, -187500.02, -15904.92, -187500.02, -187500.02, -187500.02, -76450.83, 0.00, 0.00, 0.00
85, -187500.02, -187500.02, -187500.02, -14864.38, -187500.02, -187500.02, -187500.02, -75694.56, 0.00, 0.00, 0.00
86, -187500.02, -187500.02, -187500.02, -16164.38, -187500.02, -187500.02, -187500.02, -76692.52, 0.00, 0.00, 0.00
87, -187500.02, -187500.02, -187500.02, -17308.27, -187500.02, -187500.02, -187500.02, -77723.90, 0.00, 0.00, 0.00
88, -187500.02, -187500.02, -187500.02, -16108.37, -187500.02, -187500.02, -187500.02, -77038.28, 0.02, 0.95, 0.25
89, -187500.02, -187500.02, -187500.02, -14740.13, -187500.02, -187500.02, -187500.02, -76101.34, 0.00, 0.00, 0.00
90, -187500.02, -187500.02, -187500.02, -15711.08, -187500.02, -187500.02, -187500.02, -76862.48, 0.00, 0.00, 0.00
91, -187500.02, -187500.02, -187500.02, -17153.55, -187500.02, -187500.02, -187500.02, -78174.46, 0.00, 0.00, 0.00
92, -187500.02, -187500.02, -187500.02, -16339.59, -187500.02, -187500.02, -187500.02, -77980.38, 0.00, 0.00, 0.00
93, -187500.02, -187500.02, -187500.02, -14685.32, -187500.02, -187500.02, -187500.02, -77080.34, 0.00, 0.00, 0.00
94, -187500.02, -187500.02, -187500.02, -15252.99, -187500.02, -187500.02, -187500.02, -77706.84, 0.00, 0.00, 0.00
95, -187500.02, -187500.02, -187500.02, -16869.87, -187500.02, -187500.02, -187500.02, -79141.47, 0.00, 0.00, 0.00
96, -187500.02, -187500.02, -187500.02, -16442.08, -187500.02, -187500.02, -187500.02, -79096.48, 0.00, 0.00, 0.00
97, -187500.02, -187500.02, -187500.02, -14693.57, -187500.02, -187500.02, -187500.02, -77952.63, 0.00, 0.00, 0.00
98, -187500.02, -187500.02, -187500.02, -14804.81, -187500.02, -187500.02, -187500.02, -78048.18, 0.02, 0.97, 0.25
99, -187500.02, -187500.02, -187500.02, -16519.66, -187500.02, -187500.02, -187500.02, -79424.04, 0.00, 0.00, 0.00
100, -187500.02, -187500.02, -187500.02, -16561.61, -187500.02, -187500.02, -187500.02, -79698.30, 0.00, 0.00, 0.00
101, -187500.02, -187500.02, -187500.02, -14834.27, -187500.02, -187500.02, -187500.02, -78598.63, 0.00, 0.00, 0.00
102, -187500.02, -187500.02, -187500.02, -14520.03, -187500.02, -187500.02, -187500.02, -78372.12, 0.00, 0.00, 0.00
103, -187500.02, -187500.02, -187500.02, -16159.62, -187500.02, -187500.02, -187500.02, -79576.32, 0.00, 0.00, 0.00
104, -187500.02, -187500.02, -187500.02, -16656.99, -187500.02, -187500.02, -187500.02, -80061.63, 0.00, 0.00, 0.00
105, -187500.02, -187500.02, -187500.02, -15021.74, -187500.02, -187500.02, -187500.02, -78921.01, 0.00, 0.00, 0.00
106, -187500.02, -187500.02, -187500.02, -14262.78, -187500.02, -187500.02, -187500.02, -78276.32, 0.00, 0.00, 0.00
107, -187500.02, -187500.02, -187500.02, -15793.23, -187500.02, -187500.02, -187500.02, -79349.56, 0.00, 0.00, 0.00
108, -187500.02, -187500.02, -187500.02, -16684.68, -187500.02, -187500.02, -187500.02, -80126.60, 0.03, 0.98, 0.24
109, -187500.02, -187500.02, -187500.02, -15277.46, -187500.02, -187500.02, -187500.02, -79251.66, 0.00, 0.00, 0.00
110, -187500.02, -187500.02, -187500.02, -14173.69, -187500.02, -187500.02, -187500.02, -78489.06, 0.00, 0.00, 0.00
111, -187500.02, -187500.02, -187500.02, -15448.05, -187500.02, -187500.02, -187500.02, -79448.31, 0.00, 0.00, 0.00
112, -187500.02, -187500.02, -187500.02, -16703.39, -187500.02, -187500.02, -187500.02, -80512.43, 0.00, 0.00, 0.00
113, -187500.02, -187500.02, -187500.02, -15623.02, -187500.02, -187500.02, -187500.02, -79864.93, 0.00, 0.00, 0.00
114, -187500.02, -187500.02, -187500.02, -14236.14, -187500.02, -187500.02, -187500.02, -78855.81, 0.00, 0.00, 0.00
115, -187500.02, -187500.02, -187500.02, -15163.78, -187500.02, -187500.02, -187500.02, -79467.78, 0.00, 0.00, 0.00
116, -187500.02, -187500.02, -187500.02, -16691.21, -187500.02, -187500.02, -187500.02, -80597.52, 0.00, 0.00, 0.00
117, -187500.02, -187500.02, -187500.02, -16011.81, -187500.02, -187500.02, -187500.02, -80095.08, 0.00, 0.00, 0.00
118, -187500.02, -187500.02, -187500.02, -14392.11, -187500.02, -187500.02, -187500.02, -78711.64, 0.05, 0.97, 0.24
119, -187500.02, -187500.02, -187500.02, -14925.96, -187500.02, -187500.02, -187500.02, -78804.00, 0.00, 0.00, 0.00
120, -187500.02, -187500.02, -187500.02, -16629.50, -187500.02, -187500.02, -187500.02, -79876.05, 0.00, 0.00, 0.00
121, -187500.02, -187500.02, -187500.02, -16367.49, -187500.02, -187500.02, -187500.02, -79602.45, 0.00, 0.00, 0.00
122, -187500.02, -187500.02, -187500.02, -14679.51, -187500.02, -187500.02, -187500.02, -78162.57, 0.00, 0.00, 0.00
123, -187500.02, -187500.02, -187500.02, -14744.04, -187500.02, -187500.02, -187500.02, -77836.73, 0.00, 0.00, 0.00
124, -187500.02, -187500.02, -187500.02, -16500.04, -187500.02, -187500.02, -187500.02, -78816.00, 0.00, 0.00, 0.00
125, -187500.02, -187500.02, -187500.02, -16699.32, -187500.02, -187500.02, -187500.02, -78827.72, 0.00, 0.00, 0.00
126, -187500.02, -187500.02, -187500.02, -15047.64, -187500.02, -187500.02, -187500.02, -77441.10, 0.00, 0.00, 0.00
127, -187500.02, -187500.02, -187500.02, -14741.94, -187500.02, -187500.02, -187500.02, -76932.51, 0.08, 0.96, 0.25
128, -187500.02, -187500.02, -187500.02, -16463.65, -187500.02, -187500.02, -187500.02, -78052.04, 0.00, 0.00, 0.00
129, -187500.02, -187500.02, -187500.02, -17118.62, -187500.02, -187500.02, -187500.02, -78669.11, 0.00, 0.00, 0.00
130, -187500.02, -187500.02, -187500.02, -15621.61, -187500.02, -187500.02, -187500.02, -77802.98, 0.00, 0.00, 0.00
131, -187500.02, -187500.02, -187500.02, -14872.38, -187500.02, -187500.02, -187500.02, -77451.59, 0.00, 0.00, 0.00
132, -187500.02, -187500.02, -187500.02, -16409.11, -187500.02, -187500.02, -187500.02, -78866.36, 0.00, 0.00, 0.00
133, -187500.02, -187500.02, -187500.02, -17457.88, -187500.02, -187500.02, -187500.02, -80117.12, 0.00, 0.00, 0.00
134, -187500.02, -187500.02, -187500.02, -16217.40, -187500.02, -187500.02, -187500.02, -79738.15, 0.00, 0.00, 0.00
135, -187500.02, -187500.02, -187500.02, -15123.12, -187500.02, -187500.02, -187500.02, -79397.06, 0.00, 0.00, 0.00
136, -187500.02, -187500.02, -187500.02, -16363.69, -187500.02, -187500.02, -187500.02, -80818.81, 0.00, 0.00, 0.00
137, -187500.02, -187500.02, -187500.02, -17737.40, -187500.02, -187500.02, -187500.02, -82540.27, 0.03, 0.96, 0.26
138, -187500.02, -187500.02, -187500.02, -16807.60, -187500.02, -187500.02, -187500.02, -82626.57, 0.00, 0.00, 0.00
139, -187500.02, -187500.02, -187500.02, -15460.81, -187500.02, -187500.02, -187500.02, -82308.09, 0.00, 0.00, 0.00
140, -187500.02, -187500.02, -187500.02, -16453.97, -187500.02, -187500.02, -187500.02, -83446.32, 0.00, 0.00, 0.00
141, -187500.02, -187500.02, -187500.02, -18138.04, -187500.02, -187500.02, -187500.02, -84868.77, 0.00, 0.00, 0.00
142, -187500.02, -187500.02, -187500.02, -17595.58, -187500.02, -187500.02, -187500.02, -84644.76, 0.00, 0.00, 0.00
143, -187500.02, -187500.02, -187500.02, -15758.54, -187500.02, -187500.02, -187500.02, -83545.99, 0.00, 0.00, 0.00
144, -187500.02, -187500.02, -187500.02, -15798.53, -187500.02, -187500.02, -187500.02, -83943.96, 0.00, 0.00, 0.00
145, -187500.02, -187500.02, -187500.02, -17109.72, -187500.02, -187500.02, -187500.02, -85356.37, 0.00, 0.00, 0.00
146, -187500.02, -187500.02, -187500.02, -16549.46, -187500.02, -187500.02, -187500.02, -85735.34, 0.00, 0.00, 0.00
147, -187500.02, -187500.02, -187500.02, -14357.98, -187500.02, -187500.02, -187500.02, -85106.74, -0.02, 0.93, 0.26
148, -187500.02, -187500.02, -187500.02, -13783.49, -187500.02, -187500.02, -187500.02, -85232.12, 0.00, 0.00, 0.00
149, -187500.02, -187500.02, -187500.02, -15172.23, -187500.02, -187500.02, -187500.02, -86571.16, 0.00, 0.00, 0.00
150, -187500.02, -187500.02, -187500.02, -15273.64, -187500.02, -187500.02, -187500.02, -87036.41, 0.00, 0.00, 0.00
151, -187500.02, -187500.02, -187500.02, -13429.62, -187500.02, -187500.02, -187500.02, -85916.59, 0.00, 0.00, 0.00
152, -187500.02, -187500.02, -187500.02, -12739.69, -187500.02, -187500.02, -187500.02, -85408.23, 0.00, 0.00, 0.00
153, -187500.02, -187500.02, -187500.02, -14244.01, -187500.02, -187500.02, -187500.02, -86549.05, 0.00, 0.00, 0.00
154, -187500.02, -187500.02, -187500.02, -14923.61, -187500.02, -187500.02, -187500.02, -87289.13, 0.00, 0.00, 0.00
155, -187500.02, -187500.02, -187500.02, -13356.80, -187500.02, -187500.02, -187500.02, -86463.18, 0.00, 0.00, 0.00
156, -187500.02, -187500.02, -187500.02, -12348.69, -187500.02, -187500.02, -187500.02, -85995.59, 0.00, 0.00, 0.00
157, -187500.02, -187500.02, -187500.02, -13676.25, -187500.02, -187500.02, -187500.02, -87185.73, -0.01, 0.95, 0.27
158, -187500.02, -187500.02, -187500.02, -14734.90, -187500.02, -187500.02, -187500.02, -88238.31, 0.00, 0.00, 0.00
159, -187500.02, -187500.02, -187500.02, -13440.44, -187500.02, -187500.02, -187500.02, -87616.33, 0.00, 0.00, 0.00
160, -187500.02, -187500.02, -187500.02, -12106.75, -187500.02, -187500.02, -187500.02, -86923.56, 0.00, 0.00, 0.00
161, -187500.02, -187500.02, -187500.02, -13143.61, -187500.02, -187500.02, -187500.02, -87875.26, 0.00, 0.00, 0.00
162, -187500.02, -187500.02, -187500.02, -14515.85, -187500.02, -187500.02, -187500.02, -89062.89, 0.00, 0.00, 0.00
163, -187500.02, -187500.02, -187500.02, -13604.99, -187500.02, -187500.02, -187500.02, -88576.32, 0.00, 0.00, 0.00
164, -187500.02, -187500.02, -187500.02, -12007.71, -187500.02, -187500.02, -187500.02, -87473.84, 0.00, 0.00, 0.00
165, -187500.02, -187500.02, -187500.02, -12649.17, -187500.02, -187500.02, -187500.02, -87903.06, 0.00, 0.00, 0.00
166, -187500.02, -187500.02, -187500.02, -14257.93, -187500.02, -187500.02, -187500.02, -89116.80, 0.00, 0.00, 0.00
167, -187500.02, -187500.02, -187500.02, -13760.52, -187500.02, -187500.02, -187500.02, -88894.85, -0.01, 0.95, 0.26
168, -187500.02, -187500.02, -187500.02, -12009.48, -187500.02, -187500.02, -187500.02, -87711.04, 0.00, 0.00, 0.00
169, -187500.02, -187500.02, -187500.02, -12231.90, -187500.02, -187500.02, -187500.02, -87861.73, 0.00, 0.00, 0.00
170, -187500.02, -187500.02, -187500.02, -13963.00, -187500.02, -187500.02, -187500.02, -89150.91, 0.00, 0.00, 0.00
171, -187500.02, -187500.02, -187500.02, -13933.81, -187500.02, -187500.02, -187500.02, -89262.96, 0.00, 0.00, 0.00
172, -187500.02, -187500.02, -187500.02, -12181.25, -187500.02, -187500.02, -187500.02, -88078.34, 0.00, 0.00, 0.00
173, -187500.02, -187500.02, -187500.02, -11955.10, -187500.02, -187500.02, -187500.02, -87912.05, 0.00, 0.00, 0.00
174, -187500.02, -187500.02, -187500.02, -13659.40, -187500.02, -187500.02, -187500.02, -89204.69, 0.00, 0.00, 0.00
175, -187500.02, -187500.02, -187500.02, -14066.76, -187500.02, -187500.02, -187500.02, -89646.61, 0.00, 0.00, 0.00
176, -187500.02, -187500.02, -187500.02, -12402.16, -187500.02, -187500.02, -187500.02, -88546.50, 0.00, 0.00, 0.00
177, -187500.02, -187500.02, -187500.02, -11755.47, -187500.02, -187500.02, -187500.02, -88092.06, 0.01, 0.97, 0.25
178, -187500.02, -187500.02, -187500.02, -13374.41, -187500.02, -187500.02, -187500.02, -89324.92, 0.00, 0.00, 0.00
179, -187500.02, -187500.02, -187500.02, -14212.31, -187500.02, -187500.02, -187500.02, -90071.52, 0.00, 0.00, 0.00
180, -187500.02, -187500.02, -187500.02, -12753.14, -187500.02, -187500.02, -187500.02, -89140.70, 0.00, 0.00, 0.00
181, -187500.02, -187500.02, -187500.02, -11754.07, -187500.02, -187500.02, -187500.02, -88457.52, 0.00, 0.00, 0.00
182, -187500.02, -187500.02, -187500.02, -13127.40, -187500.02, -187500.02, -187500.02, -89452.15, 0.00, 0.00, 0.00
183, -187500.02, -187500.02, -187500.02, -14335.94, -187500.02, -187500.02, -187500.02, -90445.91, 0.00, 0.00, 0.00
184, -187500.02, -187500.02, -187500.02, -13202.59, -187500.02, -187500.02, -187500.02, -89810.11, 0.00, 0.00, 0.00
185, -187500.02, -187500.02, -187500.02, -11911.33, -187500.02, -187500.02, -187500.02, -89000.02, 0.00, 0.00, 0.00
186, -187500.02, -187500.02, -187500.02, -13014.21, -187500.02, -187500.02, -187500.02, -89871.35, 0.00, 0.00, 0.00
187, -187500.02, -187500.02, -187500.02, -14562.34, -187500.02, -187500.02, -187500.02, -91127.03, 0.02, 0.98, 0.25
188, -187500.02, -187500.02, -187500.02, -13799.47, -187500.02, -187500.02, -187500.02, -90743.32, 0.00, 0.00, 0.00
189, -187500.02, -187500.02, -187500.02, -12260.16, -187500.02, -187500.02, -187500.02, -89734.90, 0.00, 0.00, 0.00
190, -187500.02, -187500.02, -187500.02, -12972.15, -187500.02, -187500.02, -187500.02, -90292.44, 0.00, 0.00, 0.00
191, -187500.02, -187500.02, -187500.02, -14748.84, -187500.02, -187500.02, -187500.02, -91669.33, 0.00, 0.00, 0.00
192, -187500.02, -187500.02, -187500.02, -14439.18, -187500.02, -187500.02, -187500.02, -91580.23, 0.00, 0.00, 0.00
193, -187500.02, -187500.02, -187500.02, -12791.34, -187500.02, -187500.02, -187500.02, -90482.63, 0.00, 0.00, 0.00
194, -187500.02, -187500.02, -187500.02, -13042.94, -187500.02, -187500.02, -187500.02, -90699.84, 0.00, 0.00, 0.00
195, -187500.02, -187500.02, -187500.02, -14847.86, -187500.02, -187500.02, -187500.02, -92073.74, 0.00, 0.00, 0.00
196, -187500.02, -187500.02, -187500.02, -14950.12, -187500.02, -187500.02, -187500.02, -92250.95, 0.00, 0.00, 0.00
197, -187500.02, -187500.02, -187500.02, -13258.65, -187500.02, -187500.02, -187500.02, -91016.10, 0.04, 0.97, 0.26
198, -187500.02, -187500.02, -187500.02, -13008.60, -187500.02, -187500.02, -187500.02, -90659.88, 0.00, 0.00, 0.00
199, -187500.02, -187500.02, -187500.02, -14758.45, -187500.02, -187500.02, -187500.02, -91729.74, 0.00, 0.00, 0.00
200, -187500.02, -187500.02, -187500.02, -15255.11, -187500.02, -187500.02, -187500.02, -91936.43, 0.00, 0.00, 0.00
201, -187500.02, -187500.02, -187500.02, -13619.12, -187500.02, -187500.02, -187500.02, -90533.52, 0.00, 0.00, 0.00
202, -187500.02, -187500.02, -187500.02, -12927.49, -187500.02, -187500.02, -187500.02, -89710.31, 0.00, 0.00, 0.00
203, -187500.02, -187500.02, -187500.02, -14487.98, -187500.02, -187500.02, -187500.02, -90545.91, 0.00, 0.00, 0.00
204, -187500.02, -187500.02, -187500.02, -15399.75, -187500.02, -187500.02, -187500.02, -91095.76, 0.00, 0.00, 0.00
205, -187500.02, -187500.02, -187500.02, -13975.07, -187500.02, -187500.02, -187500.02, -90072.56, 0.00, 0.00, 0.00
206, -187500.02, -187500.02, -187500.02, -12858.56, -187500.02, -187500.02, -187500.02, -89287.13, 0.00, 0.00, 0.00
207, -187500.02, -187500.02, -187500.02, -14170.31, -187500.02, -187500.02, -187500.02, -90347.80, 0.04, 0.95, 0.25
208, -187500.02, -187500.02, -187500.02, -15455.49, -187500.02, -187500.02, -187500.02, -91583.90, 0.00, 0.00, 0.00
209, -187500.02, -187500.02, -187500.02, -14380.64, -187500.02, -187500.02, -187500.02, -91229.55, 0.00, 0.00, 0.00
210, -187500.02, -187500.02, -187500.02, -13012.89, -187500.02, -187500.02, -187500.02, -90680.11, 0.00, 0.00, 0.00
211, -187500.02, -187500.02, -187500.02, -14022.39, -187500.02, -187500.02, -187500.02, -91930.95, 0.00, 0.00, 0.00
212, -187500.02, -187500.02, -187500.02, -15633.03, -187500.02, -187500.02, -187500.02, -93827.75, 0.00, 0.00, 0.00
213, -187500.02, -187500.02, -187500.02, -14970.42, -187500.02, -187500.02, -187500.02, -94224.34, 0.00, 0.00, 0.00
214, -187500.02, -187500.02, -187500.02, -13375.10, -187500.02, -187500.02, -187500.02, -93868.96, 0.00, 0.00, 0.00
215, -187500.02, -187500.02, -187500.02, -13943.00, -187500.02, -187500.02, -187500.02, -94791.78, 0.00, 0.00, 0.00
216, -187500.02, -187500.02, -187500.02, -15665.58, -187500.02, -187500.02, -187500.02, -96218.29, 0.04, 0.97, 0.29
217, -187500.02, -187500.02, -187500.02, -15334.21, -187500.02, -187500.02, -187500.02, -95958.09, 0.00, 0.00, 0.00
218, -187500.02, -187500.02, -187500.02, -13540.66, -187500.02, -187500.02, -187500.02, -94569.60, 0.00, 0.00, 0.00
219, -187500.02, -187500.02, -187500.02, -13546.88, -187500.02, -187500.02, -187500.02, -94534.20, 0.00, 0.00, 0.00
220, -187500.02, -187500.02, -187500.02, -15213.16, -187500.02, -187500.02, -187500.02, -95923.29, 0.00, 0.00, 0.00
221, -187500.02, -187500.02, -187500.02, -15277.13, -187500.02, -187500.02, -187500.02, -96314.53, 0.00, 0.00, 0.00
222, -187500.02, -187500.02, -187500.02, -13418.53, -187500.02, -187500.02, -187500.02, -95166.20, 0.00, 0.00, 0.00
223, -187500.02, -187500.02, -187500.02, -12878.54, -187500.02, -187500.02, -187500.02, -94711.09, 0.00, 0.00, 0.00
224, -187500.02, -187500.02, -187500.02, -14432.30, -187500.02, -187500.02, -187500.02, -95709.52, 0.00, 0.00, 0.00
225, -187500.02, -187500.02, -187500.02, -14952.96, -187500.02, -187500.02, -187500.02, -96144.33, 0.00, 0.00, 0.00
226, -187500.02, -187500.02, -187500.02, -13251.54, -187500.02, -187500.02, -187500.02, -95155.15, -0.01, 0.92, 0.28
227, -187500.02, -187500.02, -187500.02, -12239.86, -187500.02, -187500.02, -187500.02, -94755.55, 0.00, 0.00, 0.00
228, -187500.02, -187500.02, -187500.02, -13605.06, -187500.02, -187500.02, -187500.02, -95908.45, 0.00, 0.00, 0.00
229, -187500.02, -187500.02, -187500.02, -14478.41, -187500.02, -187500.02, -187500.02, -96188.98, 0.00, 0.00, 0.00
230, -187500.02, -187500.02, -187500.02, -12950.60, -187500.02, -187500.02, -187500.02, -94590.48, 0.00, 0.00, 0.00
231, -187500.02, -187500.02, -187500.02, -11562.92, -187500.02, -187500.02, -187500.02, -93536.46, 0.00, 0.00, 0.00
232, -187500.02, -187500.02, -187500.02, -12673.82, -187500.02, -187500.02, -187500.02, -94640.66, 0.00, 0.00, 0.00
233, -187500.02, -187500.02, -187500.02, -13983.72, -187500.02, -187500.02, -187500.02, -96028.45, 0.00, 0.00, 0.00
234, -187500.02, -187500.02, -187500.02, -12900.98, -187500.02, -187500.02, -187500.02, -95539.22, 0.00, 0.00, 0.00
235, -187500.02, -187500.02, -187500.02, -11299.57, -187500.02, -187500.02, -187500.02, -94310.79, 0.00, 0.00, 0.00
236, -187500.02, -187500.02, -187500.02, -12063.44, -187500.02, -187500.02, -187500.02, -94710.95, 0.01, 0.96, 0.27
237, -187500.02, -187500.02, -187500.02, -13632.19, -187500.02, -187500.02, -187500.02, -95998.91, 0.00, 0.00, 0.00
238, -187500.02, -187500.02, -187500.02, -12999.48, -187500.02, -187500.02, -187500.02, -95984.83, 0.00, 0.00, 0.00
239, -187500.02, -187500.02, -187500.02, -11282.13, -187500.02, -187500.02, -187500.02, -95237.16, 0.00, 0.00, 0.00
240, -187500.02, -187500.02, -187500.02, -11693.05, -187500.02, -187500.02, -187500.02, -95877.63, 0.00, 0.00, 0.00
241, -187500.02, -187500.02, -187500.02, -13435.68, -187500.02, -187500.02, -187500.02, -97256.88, 0.00, 0.00, 0.00
242, -187500.02, -187500.02, -187500.02, -13251.77, -187500.02, -187500.02, -187500.02, -97106.34, 0.00, 0.00, 0.00
243, -187500.02, -187500.02, -187500.02, -11466.71, -187500.02, -187500.02, -187500.02, -95747.13, 0.00, 0.00, 0.00
244, -187500.02, -187500.02, -187500.02, -11424.85, -187500.02, -187500.02, -187500.02, -95633.19, 0.00, 0.00, 0.00
245, -187500.02, -187500.02, -187500.02, -13205.54, -187500.02, -187500.02, -187500.02, -96839.31, 0.00, 0.00, 0.00
246, -187500.02, -187500.02, -187500.02, -13517.46, -187500.02, -187500.02, -187500.02, -96997.65, 0.00, 0.92, 0.26
247, -187500.02, -187500.02, -187500.02, -11767.57, -187500.02, -187500.02, -187500.02, -95569.48, 0.00, 0.00, 0.00
248, -187500.02, -187500.02, -187500.02, -11195.56, -187500.02, -187500.02, -187500.02, -94858.09, 0.00, 0.00, 0.00
249, -187500.02, -187500.02, -187500.02, -12818.95, -187500.02, -187500.02, -187500.02, -95678.67, 0.00, 0.00, 0.00
250, -187500.02, -187500.02, -187500.02, -13490.22, -187500.02, -187500.02, -187500.02, -95832.14, 0.00, 0.00, 0.00
251, -187500.02, -187500.02, -187500.02, -11862.96, -187500.02, -187500.02, -187500.02, -94387.08, 0.00, 0.00, 0.00
252, -187500.02, -187500.02, -187500.02, -10852.20, -187500.02, -187500.02, -187500.02, -93220.16, 0.00, 0.00, 0.00
253, -187500.02, -187500.02, -187500.02, -12222.65, -187500.02, -187500.02, -187500.02, -93361.04, 0.00, 0.00, 0.00
254, -187500.02, -187500.02, -187500.02, -13282.14, -187500.02, -187500.02, -187500.02, -93451.66, 0.00, 0.00, 0.00
255, -187500.02, -187500.02, -187500.02, -11934.85, -187500.02, -187500.02, -187500.02, -92314.76, 0.00, 0.00, 0.00
0, -187500.02, -187500.02, -187500.02, -10572.73, -187500.02, -187500.02, -187500.02, -91594.96, 0.02, 0.92, 0.26
1, -187500.02, -187500.02, -187500.02, -11735.27, -187500.02, -187500.02, -187500.02, -93003.02, 0.00, 0.00, 0.00
2, -187500.02, -187500.02, -187500.02, -13218.71, -187500.02, -187500.02, -187500.02, -94683.93, 0.00, 0.00, 0.00
3, -187500.02, -187500.02, -187500.02, -12286.93, -187500.02, -187500.02, -187500.02, -94368.21, 0.00, 0.00, 0.00
4, -187500.02, -187500.02, -187500.02, -10683.04, -187500.02, -187500.02, -187500.02, -93287.08, 0.00, 0.00, 0.00
5, -187500.02, -187500.02, -187500.02, -11476.53, -187500.02, -187500.02, -187500.02, -93909.53, 0.00, 0.00, 0.00
6, -187500.02, -187500.02, -187500.02, -13213.55, -187500.02, -187500.02, -187500.02, -95478.63, 0.00, 0.00, 0.00
7, -187500.02, -187500.02, -187500.02, -12754.24, -187500.02, -187500.02, -187500.02, -95768.55, 0.00, 0.00, 0.00
8, -187500.02, -187500.02, -187500.02, -11059.64, -187500.02, -187500.02, -187500.02, -95191.23, 0.00, 0.00, 0.00
9, -187500.02, -187500.02, -187500.02, -11407.17, -187500.02, -187500.02, -187500.02, -95799.95, 0.00, 0.00, 0.00
10, -187500.02, -187500.02, -187500.02, -13261.60, -187500.02, -187500.02, -187500.02, -97231.49, -0.01, 0.94, 0.28
11, -187500.02, -187500.02, -187500.02, -13225.84, -187500.02, -187500.02, -187500.02, -97195.30, 0.00, 0.00, 0.00
12, -187500.02, -187500.02, -187500.02, -11435.55, -187500.02, -187500.02, -187500.02, -95902.21, 0.00, 0.00, 0.00
13, -187500.02, -187500.02, -187500.02, -11279.90, -187500.02, -187500.02, -187500.02, -95864.41, 0.00, 0.00, 0.00
14, -187500.02, -187500.02, -187500.02, -13153.24, -187500.02, -187500.02, -187500.02, -97405.70, 0.00, 0.00, 0.00
15, -187500.02, -187500.02, -187500.02, -13654.17, -187500.02, -187500.02, -187500.02, -98024.11, 0.00, 0.00, 0.00
16, -187500.02, -187500.02, -187500.02, -12015.05, -187500.02, -187500.02, -187500.02, -97095.10, 0.00, 0.00, 0.00
17, -187500.02, -187500.02, -187500.02, -11439.22, -187500.02, -187500.02, -187500.02, -96937.14, 0.00, 0.00, 0.00
18, -187500.02, -187500.02, -187500.02, -13193.54, -187500.02, -187500.02, -187500.02, -98571.80, 0.00, 0.00, 0.00
19, -187500.02, -187500.02, -187500.02, -14150.02, -187500.02, -187500.02, -187500.02, -99857.78, 0.00, 0.00, 0.00
20, -187500.02, -187500.02, -187500.02, -12701.74, -187500.02, -187500.02, -187500.02, -99529.05, -0.03, 0.98, 0.28
21, -187500.02, -187500.02, -187500.02, -11688.58, -187500.02, -187500.02, -187500.02, -99415.55, 0.00, 0.00, 0.00
22, -187500.02, -187500.02, -187500.02, -13146.87, -187500.02, -187500.02, -187500.02, -100870.00, 0.00, 0.00, 0.00
23, -187500.02, -187500.02, -187500.02, -14459.95, -187500.02, -187500.02, -187500.02, -102070.87, 0.00, 0.00, 0.00
24, -187500.02, -187500.02, -187500.02, -13290.35, -187500.02, -187500.02, -187500.02, -101385.14, 0.00, 0.00, 0.00
25, -187500.02, -187500.02, -187500.02, -11871.06, -187500.02, -187500.02, -187500.02, -100445.92, 0.00, 0.00, 0.00
26, -187500.02, -187500.02, -187500.02, -12968.95, -187500.02, -187500.02, -187500.02, -101300.94, 0.00, 0.00, 0.00
27, -187500.02, -187500.02, -187500.02, -14571.30, -187500.02, -187500.02, -187500.02, -102607.18, 0.00, 0.00, 0.00
28, -187500.02, -187500.02, -187500.02, -13750.57, -187500.02, -187500.02, -187500.02, -102165.44, 0.00, 0.00, 0.00
29, -187500.02, -187500.02, -187500.02, -12031.18, -187500.02, -187500.02, -187500.02, -100926.35, 0.00, 0.00, 0.00
30, -187500.02, -187500.02, -187500.02, -12628.06, -187500.02, -187500.02, -187500.02, -101232.19, 0.02, 0.99, 0.30
31, -187500.02, -187500.02, -187500.02, -14354.76, -187500.02, -187500.02, -187500.02, -102337.15, 0.00, 0.00, 0.00
32, -187500.02, -187500.02, -187500.02, -13885.31, -187500.02, -187500.02, -187500.02, -101888.86, 0.00, 0.00, 0.00
33, -187500.02, -187500.02, -187500.02, -11978.72, -187500.02, -187500.02, -187500.02, -100397.39, 0.00, 0.00, 0.00
34, -187500.02, -187500.02, -187500.02, -12096.25, -187500.02, -187500.02, -187500.02, -100295.60, 0.00, 0.00, 0.00
35, -187500.02, -187500.02, -187500.02, -13905.24, -187500.02, -187500.02, -187500.02, -101379.35, 0.00, 0.00, 0.00
36, -187500.02, -187500.02, -187500.02, -13911.93, -187500.02, -187500.02, -187500.02, -101192.31, 0.00, 0.00, 0.00
37, -187500.02, -187500.02, -187500.02, -12026.07, -187500.02, -187500.02, -187500.02, -99654.71, 0.00, 0.00, 0.00
38, -187500.02, -187500.02, -187500.02, -11642.46, -187500.02, -187500.02, -187500.02, -99157.43, 0.00, 0.00, 0.00
39, -187500.02, -187500.02, -187500.02, -13374.93, -187500.02, -187500.02, -187500.02, -100207.27, 0.00, 0.00, 0.00
40, -187500.02, -187500.02, -187500.02, -13855.15, -187500.02, -187500.02, -187500.02, -100447.59, 0.03, 0.94, 0.29
41, -187500.02, -187500.02, -187500.02, -12085.99, -187500.02, -187500.02, -187500.02, -99095.20, 0.00, 0.00, 0.00
42, -187500.02, -187500.02, -187500.02, -11298.56, -187500.02, -187500.02, -187500.02, -98444.01, 0.00, 0.00, 0.00
43, -187500.02, -187500.02, -187500.02, -12884.98, -187500.02, -187500.02, -187500.02, -99540.05, 0.00, 0.00, 0.00
44, -187500.02, -187500.02, -187500.02, -13808.37, -187500.02, -187500.02, -187500.02, -100299.45, 0.00, 0.00, 0.00
45, -187500.02, -187500.02, -187500.02, -12308.46, -187500.02, -187500.02, -187500.02, -99415.21, 0.00, 0.00, 0.00
46, -187500.02, -187500.02, -187500.02, -11113.49, -187500.02, -187500.02, -187500.02, -98730.58, 0.00, 0.00, 0.00
47, -187500.02, -187500.02, -187500.02, -12495.38, -187500.02, -187500.02, -187500.02, -99872.82, 0.00, 0.00, 0.00
48, -187500.02, -187500.02, -187500.02, -13794.31, -187500.02, -187500.02, -187500.02, -100963.95, 0.00, 0.00, 0.00
49, -187500.02, -187500.02, -187500.02, -12586.98, -187500.02, -187500.02, -187500.02, -100240.55, 0.04, 0.92, 0.30
50, -187500.02, -187500.02, -187500.02, -11105.24, -187500.02, -187500.02, -187500.02, -99264.25, 0.00, 0.00, 0.00
51, -187500.02, -187500.02, -187500.02, -12112.32, -187500.02, -187500.02, -187500.02, -100016.09, 0.00, 0.00, 0.00
52, -187500.02, -187500.02, -187500.02, -13684.36, -187500.02, -187500.02, -187500.02, -101176.93, 0.00, 0.00, 0.00
53, -187500.02, -187500.02, -187500.02, -12914.99, -187500.02, -187500.02, -187500.02, -100654.93, 0.00, 0.00, 0.00
54, -187500.02, -187500.02, -187500.02, -11186.98, -187500.02, -187500.02, -187500.02, -99374.09, 0.00, 0.00, 0.00
55, -187500.02, -187500.02, -187500.02, -11740.75, -187500.02, -187500.02, -187500.02, -99718.10, 0.00, 0.00, 0.00
56, -187500.02, -187500.02, -187500.02, -13501.26, -187500.02, -187500.02, -187500.02, -101092.82, 0.00, 0.00, 0.00
57, -187500.02, -187500.02, -187500.02, -13130.78, -187500.02, -187500.02, -187500.02, -101123.45, 0.00, 0.00, 0.00
58, -187500.02, -187500.02, -187500.02, -11255.96, -187500.02, -187500.02, -187500.02, -100119.16, 0.00, 0.00, 0.00
59, -187500.02, -187500.02, -187500.02, -11315.95, -187500.02, -187500.02, -187500.02, -100457.16, 0.04, 0.93, 0.30
60, -187500.02, -187500.02, -187500.02, -13093.45, -187500.02, -187500.02, -187500.02, -102033.30, 0.00, 0.00, 0.00
61, -187500.02, -187500.02, -187500.02, -13127.83, -187500.02, -187500.02, -187500.02, -102403.33, 0.00, 0.00, 0.00
62, -187500.02, -187500.02, -187500.02, -11260.34, -187500.02, -187500.02, -187500.02, -101409.55, 0.00, 0.00, 0.00
63, -187500.02, -187500.02, -187500.02, -10840.06, -187500.02, -187500.02, -187500.02, -101387.53, 0.00, 0.00, 0.00
64, -187500.02, -187500.02, -187500.02, -12536.91, -187500.02, -187500.02, -187500.02, -102835.50, 0.00, 0.00, 0.00
65, -187500.02, -187500.02, -187500.02, -13031.45, -187500.02, -187500.02, -187500.02, -103395.84, 0.00, 0.00, 0.00
66, -187500.02, -187500.02, -187500.02, -11261.86, -187500.02, -187500.02, -187500.02, -102238.30, 0.00, 0.00, 0.00
67, -187500.02, -187500.02, -187500.02, -10350.20, -187500.02, -187500.02, -187500.02, -101645.31, 0.00, 0.00, 0.00
68, -187500.02, -187500.02, -187500.02, -11840.59, -187500.02, -187500.02, -187500.02, -102806.84, 0.00, 0.00, 0.00
69, -187500.02, -187500.02, -187500.02, -12721.16, -187500.02, -187500.02, -187500.02, -103533.45, 0.05, 0.95, 0.31
70, -187500.02, -187500.02, -187500.02, -11145.09, -187500.02, -187500.02, -187500.02, -102324.41, 0.00, 0.00, 0.00
71, -187500.02, -187500.02, -187500.02, -9841.00, -187500.02, -187500.02, -187500.02, -101109.05, 0.00, 0.00, 0.00
72, -187500.02, -187500.02, -187500.02, -11056.58, -187500.02, -187500.02, -187500.02, -101670.86, 0.00, 0.00, 0.00
73, -187500.02, -187500.02, -187500.02, -12320.37, -187500.02, -187500.02, -187500.02, -102420.74, 0.00, 0.00, 0.00
74, -187500.02, -187500.02, -187500.02, -11118.18, -187500.02, -187500.02, -187500.02, -101475.20, 0.00, 0.00, 0.00
75, -187500.02, -187500.02, -187500.02, -9532.35, -187500.02, -187500.02, -187500.02, -100178.55, 0.00, 0.00, 0.00
76, -187500.02, -187500.02, -187500.02, -10416.96, -187500.02, -187500.02, -187500.02, -100597.46, 0.00, 0.00, 0.00
77, -187500.02, -187500.02, -187500.02, -11971.68, -187500.02, -187500.02, -187500.02, -101545.34, 0.00, 0.00, 0.00
78, -187500.02, -187500.02, -187500.02, -11222.41, -187500.02, -187500.02, -187500.02, -100896.28, 0.00, 0.00, 0.00
79, -187500.02, -187500.02, -187500.02, -9467.42, -187500.02, -187500.02, -187500.02, -99500.59, 0.06, 0.94, 0.29
80, -187500.02, -187500.02, -187500.02, -9977.68, -187500.02, -187500.02, -187500.02, -99763.01, 0.00, 0.00, 0.00
81, -187500.02, -187500.02, -187500.02, -11783.93, -187500.02, -187500.02, -187500.02, -101039.76, 0.00, 0.00, 0.00
82, -187500.02, -187500.02, -187500.02, -11516.31, -187500.02, -187500.02, -187500.02, -100837.14, 0.00, 0.00, 0.00
83, -187500.02, -187500.02, -187500.02, -9738.54, -187500.02, -187500.02, -187500.02, -99475.95, 0.00, 0.00, 0.00
84, -187500.02, -187500.02, -187500.02, -9871.22, -187500.02, -187500.02, -187500.02, -99454.91, 0.00, 0.00, 0.00
85, -187500.02, -187500.02, -187500.02, -11784.08, -187500.02, -187500.02, -187500.02, -100852.72, 0.00, 0.00, 0.00
86, -187500.02, -187500.02, -187500.02, -12063.24, -187500.02, -187500.02, -187500.02, -101240.81, 0.00, 0.00, 0.00
87, -187500.02, -187500.02, -187500.02, -10360.73, -187500.02, -187500.02, -187500.02, -100148.77, 0.00, 0.00, 0.00
88, -187500.02, -187500.02, -187500.02, -10055.80, -187500.02, -187500.02, -187500.02, -99922.58, 0.00, 0.00, 0.00
89, -187500.02, -187500.02, -187500.02, -11911.42, -187500.02, -187500.02, -187500.02, -101220.85, 0.04, 0.94, 0.29
90, -187500.02, -187500.02, -187500.02, -12601.82, -187500.02, -187500.02, -187500.02, -101710.16, 0.00, 0.00, 0.00
91, -187500.02, -187500.02, -187500.02, -11043.10, -187500.02, -187500.02, -187500.02, -100558.02, 0.00, 0.00, 0.00
92, -187500.02, -187500.02, -187500.02, -10296.17, -187500.02, -187500.02, -187500.02, -99951.27, 0.00, 0.00, 0.00
93, -187500.02, -187500.02, -187500.02, -11952.08, -187500.02, -187500.02, -187500.02, -101131.73, 0.00, 0.00, 0.00
94, -187500.02, -187500.02, -187500.02, -13072.62, -187500.02, -187500.02, -187500.02, -102004.04, 0.00, 0.00, 0.00
95, -187500.02, -187500.02, -187500.02, -11790.92, -187500.02, -187500.02, -187500.02, -101074.09, 0.00, 0.00, 0.00
96, -187500.02, -187500.02, -187500.02, -10683.46, -187500.02, -187500.02, -187500.02, -100094.08, 0.00, 0.00, 0.00
97, -187500.02, -187500.02, -187500.02, -12252.26, -187500.02, -187500.02, -187500.02, -100960.19, 0.00, 0.00, 0.00
98, -187500.02, -187500.02, -187500.02, -14054.20, -187500.02, -187500.02, -187500.02, -102116.53, 0.00, 0.00, 0.00
99, -187500.02, -187500.02, -187500.02, -13330.22, -187500.02, -187500.02, -187500.02, -101622.56, -0.01, 0.93, 0.28
100, -187500.02, -187500.02, -187500.02, -12039.50, -187500.02, -187500.02, -187500.02, -100798.41, 0.00, 0.00, 0.00
101, -187500.02, -187500.02, -187500.02, -13104.00, -187500.02, -187500.02, -187500.02, -101696.39, 0.00, 0.00, 0.00
102, -187500.02, -187500.02, -187500.02, -14838.56, -187500.02, -187500.02, -187500.02, -103162.57, 0.00, 0.00, 0.00
103, -187500.02, -187500.02, -187500.02, -14285.47, -187500.02, -187500.02, -187500.02, -103165.50, 0.00, 0.00, 0.00
104, -187500.02, -187500.02, -187500.02, -12626.57, -187500.02, -187500.02, -187500.02, -102370.94, 0.00, 0.00, 0.00
105, -187500.02, -187500.02, -187500.02, -13165.71, -187500.02, -187500.02, -187500.02, -103004.95, 0.00, 0.00, 0.00
106, -187500.02, -187500.02, -187500.02, -15024.53, -187500.02, -187500.02, -187500.02, -104587.85, 0.00, 0.00, 0.00
107, -187500.02, -187500.02, -187500.02, -14888.36, -187500.02, -187500.02, -187500.02, -104659.13, 0.00, 0.00, 0.00
108, -187500.02, -187500.02, -187500.02, -13092.18, -187500.02, -187500.02, -187500.02, -103330.19, 0.00, 0.00, 0.00
109, -187500.02, -187500.02, -187500.02, -13063.03, -187500.02, -187500.02, -187500.02, -103177.13, -0.03, 0.94, 0.30
110, -187500.02, -187500.02, -187500.02, -14811.76, -187500.02, -187500.02, -187500.02, -104413.31, 0.00, 0.00, 0.00
111, -187500.02, -187500.02, -187500.02, -14965.70, -187500.02, -187500.02, -187500.02, -104632.83, 0.00, 0.00, 0.00
112, -187500.02, -187500.02, -187500.02, -13068.26, -187500.02, -187500.02, -187500.02, -103312.89, 0.00, 0.00, 0.00
113, -187500.02, -187500.02, -187500.02, -12547.31, -187500.02, -187500.02, -187500.02, -102779.93, 0.00, 0.00, 0.00
114, -187500.02, -187500.02, -187500.02, -14308.04, -187500.02, -187500.02, -187500.02, -103811.45, 0.00, 0.00, 0.00
115, -187500.02, -187500.02, -187500.02, -15023.79, -187500.02, -187500.02, -187500.02, -104152.45, 0.00, 0.00, 0.00
116, -187500.02, -187500.02, -187500.02, -13417.10, -187500.02, -187500.02, -187500.02, -102796.97, 0.00, 0.00, 0.00
117, -187500.02, -187500.02, -187500.02, -12561.37, -187500.02, -187500.02, -187500.02, -101924.64, 0.00, 0.00, 0.00
118, -187500.02, -187500.02, -187500.02, -14144.09, -187500.02, -187500.02, -187500.02, -102873.14, 0.00, 0.00, 0.00
119, -187500.02, -187500.02, -187500.02, -15313.43, -187500.02, -187500.02, -187500.02, -103685.52, -0.01, 0.95, 0.29
120, -187500.02, -187500.02, -187500.02, -14009.20, -187500.02, -187500.02, -187500.02, -102698.23, 0.00, 0.00, 0.00
121, -187500.02, -187500.02, -187500.02, -12796.24, -187500.02, -187500.02, -187500.02, -101648.29, 0.00, 0.00, 0.00
122, -187500.02, -187500.02, -187500.02, -14111.77, -187500.02, -187500.02, -187500.02, -102416.52, 0.00, 0.00, 0.00
123, -187500.02, -187500.02, -187500.02, -15636.99, -187500.02, -187500.02, -187500.02, -103489.45, 0.00, 0.00, 0.00
124, -187500.02, -187500.02, -187500.02, -14722.69, -187500.02, -187500.02, -187500.02, -102848.02, 0.00, 0.00, 0.00
125, -187500.02, -187500.02, -187500.02, -13293.63, -187500.02, -187500.02, -187500.02, -101720.93, 0.00, 0.00, 0.00
126, -187500.02, -187500.02, -187500.02, -14274.36, -187500.02, -187500.02, -187500.02, -102302.16, 0.00, 0.00, 0.00
127, -187500.02, -187500.02, -187500.02, -16073.21, -187500.02, -187500.02, -187500.02, -103618.99, 0.00, 0.00, 0.00
128, -187500.02, -187500.02, -187500.02, -15589.16, -187500.02, -187500.02, -187500.02, -103361.44, 0.00, 0.00, 0.00
129, -187500.02, -187500.02, -187500.02, -13972.10, -187500.02, -187500.02, -187500.02, -102180.23, -0.00, 0.95, 0.28
130, -187500.02, -187500.02, -187500.02, -14527.56, -187500.02, -187500.02, -187500.02, -102487.05, 0.00, 0.00, 0.00
131, -187500.02, -187500.02, -187500.02, -16539.75, -187500.02, -187500.02, -187500.02, -103972.53, 0.00, 0.00, 0.00
132, -187500.02, -187500.02, -187500.02, -16586.78, -187500.02, -187500.02, -187500.02, -104138.85, 0.00, 0.00, 0.00
133, -187500.02, -187500.02, -187500.02, -14924.35, -187500.02, -187500.02, -187500.02, -102982.82, 0.00, 0.00, 0.00
134, -187500.02, -187500.02, -187500.02, -14979.33, -187500.02, -187500.02, -187500.02, -102963.33, 0.00, 0.00, 0.00
135, -187500.02, -187500.02, -187500.02, -16913.86, -187500.02, -187500.02, -187500.02, -104355.35, 0.00, 0.00, 0.00
136, -187500.02, -187500.02, -187500.02, -17354.94, -187500.02, -187500.02, -187500.02, -104779.09, 0.00, 0.00, 0.00
137, -187500.02, -187500.02, -187500.02, -15651.18, -187500.02, -187500.02, -187500.02, -103600.04, 0.00, 0.00, 0.00
138, -187500.02, -187500.02, -187500.02, -15146.28, -187500.02, -187500.02, -187500.02, -103203.32, -0.01, 0.97, 0.27
139, -187500.02, -187500.02, -187500.02, -16959.21, -187500.02, -187500.02, -187500.02, -104603.57, 0.00, 0.00, 0.00
140, -187500.02, -187500.02, -187500.02, -17804.26, -187500.02, -187500.02, -187500.02, -105473.09, 0.00, 0.00, 0.00
141, -187500.02, -187500.02, -187500.02, -16246.50, -187500.02, -187500.02, -187500.02, -104524.48, 0.00, 0.00, 0.00
142, -187500.02, -187500.02, -187500.02, -15278.96, -187500.02, -187500.02, -187500.02, -103792.13, 0.00, 0.00, 0.00
143, -187500.02, -187500.02, -187500.02, -16817.43, -187500.02, -187500.02, -187500.02, -104874.98, 0.00, 0.00, 0.00
144, -187500.02, -187500.02, -187500.02, -18024.69, -187500.02, -187500.02, -187500.02, -105904.75, 0.00, 0.00, 0.00
145, -187500.02, -187500.02, -187500.02, -16732.38, -187500.02, -187500.02, -187500.02, -105196.60, 0.00, 0.00, 0.00
146, -187500.02, -187500.02, -187500.02, -15369.91, -187500.02, -187500.02, -187500.02, -104311.95, 0.00, 0.00, 0.00
147, -187500.02, -187500.02, -187500.02, -16552.47, -187500.02, -187500.02, -187500.02, -105216.85, 0.00, 0.00, 0.00
148, -187500.02, -187500.02, -187500.02, -18065.48, -187500.02, -187500.02, -187500.02, -106447.03, -0.02, 0.98, 0.25
149, -187500.02, -187500.02, -187500.02, -17146.89, -187500.02, -187500.02, -187500.02, -105912.22, 0.00, 0.00, 0.00
150, -187500.02, -187500.02, -187500.02, -15521.43, -187500.02, -187500.02, -187500.02, -104718.50, 0.00, 0.00, 0.00
151, -187500.02, -187500.02, -187500.02, -16309.49, -187500.02, -187500.02, -187500.02, -105266.25, 0.00, 0.00, 0.00
152, -187500.02, -187500.02, -187500.02, -18048.47, -187500.02, -187500.02, -187500.02, -106701.34, 0.00, 0.00, 0.00
153, -187500.02, -187500.02, -187500.02, -17522.78, -187500.02, -187500.02, -187500.02, -106548.10, 0.00, 0.00, 0.00
154, -187500.02, -187500.02, -187500.02, -15669.78, -187500.02, -187500.02, -187500.02, -105183.84, 0.00, 0.00, 0.00
155, -187500.02, -187500.02, -187500.02, -15986.28, -187500.02, -187500.02, -187500.02, -105200.65, 0.00, 0.00, 0.00
156, -187500.02, -187500.02, -187500.02, -17936.92, -187500.02, -187500.02, -187500.02, -106535.56, 0.00, 0.00, 0.00
157, -187500.02, -187500.02, -187500.02, -17922.34, -187500.02, -187500.02, -187500.02, -106576.38, 0.00, 0.00, 0.00
158, -187500.02, -187500.02, -187500.02, -16088.83, -187500.02, -187500.02, -187500.02, -105213.14, -0.01, 0.96, 0.24
159, -187500.02, -187500.02, -187500.02, -15956.04, -187500.02, -187500.02, -187500.02, -104957.66, 0.00, 0.00, 0.00
160, -187500.02, -187500.02, -187500.02, -18016.98, -187500.02, -187500.02, -187500.02, -106436.21, 0.00, 0.00, 0.00
161, -187500.02, -187500.02, -187500.02, -18557.49, -187500.02, -187500.02, -187500.02, -106876.70, 0.00, 0.00, 0.00
162, -187500.02, -187500.02, -187500.02, -16886.90, -187500.02, -187500.02, -187500.02, -105550.05, 0.00, 0.00, 0.00
163, -187500.02, -187500.02, -187500.02, -16314.83, -187500.02, -187500.02, -187500.02, -104781.89, 0.00, 0.00, 0.00
164, -187500.02, -187500.02, -187500.02, -18342.18, -187500.02, -187500.02, -187500.02, -106060.61, 0.00, 0.00, 0.00
165, -187500.02, -187500.02, -187500.02, -19380.01, -187500.02, -187500.02, -187500.02, -106775.48, 0.00, 0.00, 0.00
166, -187500.02, -187500.02, -187500.02, -17971.56, -187500.02, -187500.02, -187500.02, -105629.63, 0.00, 0.00, 0.00
167, -187500.02, -187500.02, -187500.02, -17038.89, -187500.02, -187500.02, -187500.02, -104479.72, 0.00, 0.00, 0.00
168, -187500.02, -187500.02, -187500.02, -18759.80, -187500.02, -187500.02, -187500.02, -105238.70, 0.01, 0.94, 0.23
169, -187500.02, -187500.02, -187500.02, -20176.76, -187500.02, -187500.02, -187500.02, -106132.98, 0.00, 0.00, 0.00
170, -187500.02, -187500.02, -187500.02, -19093.75, -187500.02, -187500.02, -187500.02, -105426.67, 0.00, 0.00, 0.00
171, -187500.02, -187500.02, -187500.02, -17840.80, -187500.02, -187500.02, -187500.02, -104507.45, 0.00, 0.00, 0.00
172, -187500.02, -187500.02, -187500.02, -19179.74, -187500.02, -187500.02, -187500.02, -105524.21, 0.00, 0.00, 0.00
173, -187500.02, -187500.02, -187500.02, -20858.31, -187500.02, -187500.02, -187500.02, -106954.57, 0.00, 0.00, 0.00
174, -187500.02, -187500.02, -187500.02, -20037.49, -187500.02, -187500.02, -187500.02, -106559.62, 0.00, 0.00, 0.00
175, -187500.02, -187500.02, -187500.02, -18438.98, -187500.02, -187500.02, -187500.02, -105515.36, 0.00, 0.00, 0.00
176, -187500.02, -187500.02, -187500.02, -19170.93, -187500.02, -187500.02, -187500.02, -106284.51, 0.00, 0.00, 0.00
177, -187500.02, -187500.02, -187500.02, -20964.75, -187500.02, -187500.02, -187500.02, -108151.05, 0.00, 0.00, 0.00
178, -187500.02, -187500.02, -187500.02, -20553.63, -187500.02, -187500.02, -187500.02, -108539.30, 0.03, 0.98, 0.25
179, -187500.02, -187500.02, -187500.02, -18774.32, -187500.02, -187500.02, -187500.02, -107733.82, 0.00, 0.00, 0.00
180, -187500.02, -187500.02, -187500.02, -19032.78, -187500.02, -187500.02, -187500.02, -108233.71, 0.00, 0.00, 0.00
181, -187500.02, -187500.02, -187500.02, -20929.55, -187500.02, -187500.02, -187500.02, -110040.67, 0.00, 0.00, 0.00
182, -187500.02, -187500.02, -187500.02, -20996.58, -187500.02, -187500.02, -187500.02, -110641.49, 0.00, 0.00, 0.00
183, -187500.02, -187500.02, -187500.02, -19201.51, -187500.02, -187500.02, -187500.02, -109732.00, 0.00, 0.00, 0.00
184, -187500.02, -187500.02, -187500.02, -19000.86, -187500.02, -187500.02, -187500.02, -109803.43, 0.00, 0.00, 0.00
185, -187500.02, -187500.02, -187500.02, -20864.88, -187500.02, -187500.02, -187500.02, -111443.02, 0.00, 0.00, 0.00
186, -187500.02, -187500.02, -187500.02, -21390.26, -187500.02, -187500.02, -187500.02, -112179.24, 0.00, 0.00, 0.00
187, -187500.02, -187500.02, -187500.02, -19673.20, -187500.02, -187500.02, -187500.02, -111090.78, 0.00, 0.00, 0.00
188, -187500.02, -187500.02, -187500.02, -18985.66, -187500.02, -187500.02, -187500.02, -110544.55, 0.02, 0.98, 0.23
189, -187500.02, -187500.02, -187500.02, -20696.37, -187500.02, -187500.02, -187500.02, -111862.43, 0.00, 0.00, 0.00
190, -187500.02, -187500.02, -187500.02, -21659.64, -187500.02, -187500.02, -187500.02, -112950.23, 0.00, 0.00, 0.00
191, -187500.02, -187500.02, -187500.02, -20197.57, -187500.02, -187500.02, -187500.02, -112309.95, 0.00, 0.00, 0.00
192, -187500.02, -187500.02, -187500.02, -19139.80, -187500.02, -187500.02, -187500.02, -111732.32, 0.00, 0.00, 0.00
193, -187500.02, -187500.02, -187500.02, -20560.05, -187500.02, -187500.02, -187500.02, -112845.21, 0.00, 0.00, 0.00
194, -187500.02, -187500.02, -187500.02, -21894.52, -187500.02, -187500.02, -187500.02, -114077.16, 0.00, 0.00, 0.00
195, -187500.02, -187500.02, -187500.02, -20730.33, -187500.02, -187500.02, -187500.02, -113575.60, 0.00, 0.00, 0.00
196, -187500.02, -187500.02, -187500.02, -19288.48, -187500.02, -187500.02, -187500.02, -112735.22, 0.00, 0.00, 0.00
197, -187500.02, -187500.02, -187500.02, -20352.92, -187500.02, -187500.02, -187500.02, -113716.87, 0.00, 0.00, 0.00
198, -187500.02, -187500.02, -187500.02, -21986.29, -187500.02, -187500.02, -187500.02, -115427.00, 0.01, 1.01, 0.24
199, -187500.02, -187500.02, -187500.02, -21217.10, -187500.02, -187500.02, -187500.02, -115574.98, 0.00, 0.00, 0.00
200, -187500.02, -187500.02, -187500.02, -19553.17, -187500.02, -187500.02, -187500.02, -114927.32, 0.00, 0.00, 0.00
201, -187500.02, -187500.02, -187500.02, -20177.59, -187500.02, -187500.02, -187500.02, -115813.08, 0.00, 0.00, 0.00
202, -187500.02, -187500.02, -187500.02, -21944.54, -187500.02, -187500.02, -187500.02, -117557.21, 0.00, 0.00, 0.00
203, -187500.02, -187500.02, -187500.02, -21591.40, -187500.02, -187500.02, -187500.02, -117638.59, 0.00, 0.00, 0.00
204, -187500.02, -187500.02, -187500.02, -19756.68, -187500.02, -187500.02, -187500.02, -116256.27, 0.00, 0.00, 0.00
205, -187500.02, -187500.02, -187500.02, -19900.45, -187500.02, -187500.02, -187500.02, -116084.34, 0.00, 0.00, 0.00
206, -187500.02, -187500.02, -187500.02, -21752.67, -187500.02, -187500.02, -187500.02, -117332.15, 0.00, 0.00, 0.00
207, -187500.02, -187500.02, -187500.02, -21833.56, -187500.02, -187500.02, -187500.02, -117455.15, 0.00, 0.00, 0.00
208, -187500.02, -187500.02, -187500.02, -20056.53, -187500.02, -187500.02, -187500.02, -116004.56, 0.00, 0.96, 0.24
209, -187500.02, -187500.02, -187500.02, -19789.81, -187500.02, -187500.02, -187500.02, -115335.49, 0.00, 0.00, 0.00
210, -187500.02, -187500.02, -187500.02, -21605.62, -187500.02, -187500.02, -187500.02, -116212.52, 0.00, 0.00, 0.00
211, -187500.02, -187500.02, -187500.02, -22131.71, -187500.02, -187500.02, -187500.02, -116359.67, 0.00, 0.00, 0.00
212, -187500.02, -187500.02, -187500.02, -20469.88, -187500.02, -187500.02, -187500.02, -114948.71, 0.00, 0.00, 0.00
213, -187500.02, -187500.02, -187500.02, -19780.11, -187500.02, -187500.02, -187500.02, -114217.09, 0.00, 0.00, 0.00
214, -187500.02, -187500.02, -187500.02, -21404.23, -187500.02, -187500.02, -187500.02, -115390.74, 0.00, 0.00, 0.00
215, -187500.02, -187500.02, -187500.02, -22287.53, -187500.02, -187500.02, -187500.02, -116390.05, 0.00, 0.00, 0.00
216, -187500.02, -187500.02, -187500.02, -20776.28, -187500.02, -187500.02, -187500.02, -115600.67, 0.00, 0.00, 0.00
217, -187500.02, -187500.02, -187500.02, -19572.42, -187500.02, -187500.02, -187500.02, -114748.82, 0.01, 0.95, 0.27
218, -187500.02, -187500.02, -187500.02, -20870.94, -187500.02, -187500.02, -187500.02, -115802.20, 0.00, 0.00, 0.00
219, -187500.02, -187500.02, -187500.02, -22019.42, -187500.02, -187500.02, -187500.02, -117040.91, 0.00, 0.00, 0.00
220, -187500.02, -187500.02, -187500.02, -20731.18, -187500.02, -187500.02, -187500.02, -116504.69, 0.00, 0.00, 0.00
221, -187500.02, -187500.02, -187500.02, -19148.38, -187500.02, -187500.02, -187500.02, -115526.64, 0.00, 0.00, 0.00
222, -187500.02, -187500.02, -187500.02, -20131.08, -187500.02, -187500.02, -187500.02, -116664.14, 0.00, 0.00, 0.00
223, -187500.02, -187500.02, -187500.02, -21683.40, -187500.02, -187500.02, -187500.02, -118672.11, 0.00, 0.00, 0.00
224, -187500.02, -187500.02, -187500.02, -20868.17, -187500.02, -187500.02, -187500.02, -118858.77, 0.00, 0.00, 0.00
225, -187500.02, -187500.02, -187500.02, -19158.89, -187500.02, -187500.02, -187500.02, -117803.95, 0.00, 0.00, 0.00
226, -187500.02, -187500.02, -187500.02, -19819.80, -187500.02, -187500.02, -187500.02, -118074.78, 0.00, 0.00, 0.00
227, -187500.02, -187500.02, -187500.02, -21615.63, -187500.02, -187500.02, -187500.02, -119239.96, -0.00, 0.93, 0.28
228, -187500.02, -187500.02, -187500.02, -21222.87, -187500.02, -187500.02, -187500.02, -118927.41, 0.00, 0.00, 0.00
229, -187500.02, -187500.02, -187500.02, -19313.65, -187500.02, -187500.02, -187500.02, -117319.34, 0.00, 0.00, 0.00
230, -187500.02, -187500.02, -187500.02, -19457.55, -187500.02, -187500.02, -187500.02, -117153.71, 0.00, 0.00, 0.00
231, -187500.02, -187500.02, -187500.02, -21336.21, -187500.02, -187500.02, -187500.02, -118575.80, 0.00, 0.00, 0.00
232, -187500.02, -187500.02, -187500.02, -21343.57, -187500.02, -187500.02, -187500.02, -118608.21, 0.00, 0.00, 0.00
233, -187500.02, -187500.02, -187500.02, -19375.32, -187500.02, -187500.02, -187500.02, -116703.41, 0.00, 0.00, 0.00
234, -187500.02, -187500.02, -187500.02, -19014.40, -187500.02, -187500.02, -187500.02, -115756.20, 0.00, 0.00, 0.00
235, -187500.02, -187500.02, -187500.02, -21040.90, -187500.02, -187500.02, -187500.02, -117120.21, 0.00, 0.00, 0.00
236, -187500.02, -187500.02, -187500.02, -21673.95, -187500.02, -187500.02, -187500.02, -117914.55, 0.00, 0.00, 0.00
237, -187500.02, -187500.02, -187500.02, -19860.89, -187500.02, -187500.02, -187500.02, -116646.24, 0.01, 0.92, 0.28
238, -187500.02, -187500.02, -187500.02, -19046.21, -187500.02, -187500.02, -187500.02, -115681.83, 0.00, 0.00, 0.00
239, -187500.02, -187500.02, -187500.02, -21003.73, -187500.02, -187500.02, -187500.02, -117016.90, 0.00, 0.00, 0.00
240, -187500.02, -187500.02, -187500.02, -22131.96, -187500.02, -187500.02, -187500.02, -118093.05, 0.00, 0.00, 0.00
241, -187500.02, -187500.02, -187500.02, -20561.46, -187500.02, -187500.02, -187500.02, -117014.73, 0.00, 0.00, 0.00
242, -187500.02, -187500.02, -187500.02, -19288.19, -187500.02, -187500.02, -187500.02, -115853.55, 0.00, 0.00, 0.00
243, -187500.02, -187500.02, -187500.02, -20887.71, -187500.02, -187500.02, -187500.02, -117110.71, 0.00, 0.00, 0.00
244, -187500.02, -187500.02, -187500.02, -22411.78, -187500.02, -187500.02, -187500.02, -118715.56, 0.00, 0.00, 0.00
245, -187500.02, -187500.02, -187500.02, -21151.14, -187500.02, -187500.02, -187500.02, -118094.45, 0.00, 0.00, 0.00
246, -187500.02, -187500.02, -187500.02, -19453.77, -187500.02, -187500.02, -187500.02, -116678.36, 0.00, 0.00, 0.00
247, -187500.02, -187500.02, -187500.02, -20630.88, -187500.02, -187500.02, -187500.02, -117544.45, 0.01, 0.93, 0.27
248, -187500.02, -187500.02, -187500.02, -22475.64, -187500.02, -187500.02, -187500.02, -119456.10, 0.00, 0.00, 0.00
249, -187500.02, -187500.02, -187500.02, -21653.19, -187500.02, -187500.02, -187500.02, -119414.50, 0.00, 0.00, 0.00
250, -187500.02, -187500.02, -187500.02, -19705.95, -187500.02, -187500.02, -187500.02, -118059.49, 0.00, 0.00, 0.00
251, -187500.02, -187500.02, -187500.02, -20385.26, -187500.02, -187500.02, -187500.02, -118627.52, 0.00, 0.00, 0.00
252, -187500.02, -187500.02, -187500.02, -22407.02, -187500.02, -187500.02, -187500.02, -120721.99, 0.00, 0.00, 0.00
253, -187500.02, -187500.02, -187500.02, -22075.07, -187500.02, -187500.02, -187500.02, -121273.27, 0.00, 0.00, 0.00
254, -187500.02, -187500.02, -187500.02, -20054.63, -187500.02, -187500.02, -187500.02, -120163.45, 0.00, 0.00, 0.00
255, -187500.02, -187500.02, -187500.02, -20187.45, -187500.02, -187500.02, -187500.02, -120398.98, 0.00, 0.00, 0.00
0, -187500.02, -187500.02, -187500.02, -22326.66, -187500.02, -187500.02, -187500.02, -122404.67, 0.00, 0.00, 0.00
1, -187500.02, -187500.02, -187500.02, -22538.02, -187500.02, -187500.02, -187500.02, -122966.87, 0.02, 0.98, 0.30
2, -187500.02, -187500.02, -187500.02, -20586.67, -187500.02, -187500.02, -187500.02, -121418.31, 0.00, 0.00, 0.00
3, -187500.02, -187500.02, -187500.02, -20226.29, -187500.02, -187500.02, -187500.02, -120771.92, 0.00, 0.00, 0.00
4, -187500.02, -187500.02, -187500.02, -22394.39, -187500.02, -187500.02, -187500.02, -122464.02, 0.00, 0.00, 0.00
5, -187500.02, -187500.02, -187500.02, -23165.95, -187500.02, -187500.02, -187500.02, -123375.95, 0.00, 0.00, 0.00
6, -187500.02, -187500.02, -187500.02, -21445.18, -187500.02, -187500.02, -187500.02, -121951.25, 0.00, 0.00, 0.00
7, -187500.02, -187500.02, -187500.02, -20676.97, -187500.02, -187500.02, -187500.02, -120637.77, 0.00, 0.00, 0.00
8, -187500.02, -187500.02, -187500.02, -22647.70, -187500.02, -187500.02, -187500.02, -121561.52, 0.00, 0.00, 0.00
9, -187500.02, -187500.02, -187500.02, -23906.24, -187500.02, -187500.02, -187500.02, -122385.05, 0.00, 0.00, 0.00
