%OpenBCI Raw EEG Data
%
%Sample Rate = 250.0 Hz
%First Column = SampleIndex
%Other Columns = EEG data in microvolts followed by Accel Data (in G) interleaved with Aux Data
0, -187500.02, -187500.02, -187500.02, -187500.02, -187500.02, -187500.02, -37905.90, -28928.81, 0.02, 0.86, 0.48
1, -187500.02, -187500.02, -187500.02, -187500.02, -187500.02, -187500.02, -36158.66, -28983.48, 0.00, 0.00, 0.00
2, -187500.02, -187500.02, -187500.02, -187500.02, -187500.02, -187500.02, -34408.32, -29173.41, 0.00, 0.00, 0.00
3, -187500.02, -187500.02, -187500.02, -187500.02, -187500.02, -187500.02, -36063.87, -29125.80, 0.00, 0.00, 0.00
4, -187500.02, -187500.02, -187500.02, -187500.02, -187500.02, -187500.02, -37903.04, -28931.05, 0.00, 0.00, 0.00
5, -187500.02, -187500.02, -187500.02, -187500.02, -187500.02, -187500.02, -36613.99, -28923.78, 0.00, 0.00, 0.00
6, -187500.02, -187500.02, -187500.02, -187500.02, -187500.02, -187500.02, -34474.12, -29136.37, 0.00, 0.00, 0.00
7, -187500.02, -187500.02, -187500.02, -187500.02, -187500.02, -187500.02, -35570.43, -29131.05, 0.04, 0.88, 0.44
8, -187500.02, -187500.02, -187500.02, -187500.02, -187500.02, -187500.02, -37751.22, -28918.17, 0.00, 0.00, 0.00
9, -187500.02, -187500.02, -187500.02, -187500.02, -187500.02, -187500.02, -37025.37, -28889.58, 0.00, 0.00, 0.00
10, -187500.02, -187500.02, -187500.02, -187500.02, -187500.02, -187500.02, -34664.80, -29084.65, 0.00, 0.00, 0.00
11, -187500.02, -187500.02, -187500.02, -187500.02, -187500.02, -187500.02, -35136.45, -29138.43, 0.00, 0.00, 0.00
12, -187500.02, -187500.02, -187500.02, -187500.02, -187500.02, -187500.02, -37496.61, -28953.49, 0.00, 0.00, 0.00
13, -187500.02, -187500.02, -187500.02, -187500.02, -187500.02, -187500.02, -37340.46, -28876.93, 0.00, 0.00, 0.00
14, -187500.02, -187500.02, -187500.02, -187500.02, -187500.02, -187500.02, -34934.12, -29048.64, 0.00, 0.00, 0.00
15, -187500.02, -187500.02, -187500.02, -187500.02, -187500.02, -187500.02, -34763.78, -29163.68, 0.00, 0.00, 0.00
16, -187500.02, -187500.02, -187500.02, -187500.02, -187500.02, -187500.02, -37180.23, -28999.26, 0.03, 0.89, 0.44
17, -187500.02, -187500.02, -187500.02, -187500.02, -187500.02, -187500.02, -37618.63, -28892.80, 0.00, 0.00, 0.00
18, -187500.02, -187500.02, -187500.02, -187500.02, -187500.02, -187500.02, -35326.28, -29026.47, 0.00, 0.00, 0.00
19, -187500.02, -187500.02, -187500.02, -187500.02, -187500.02, -187500.02, -34565.86, -29161.96, 0.00, 0.00, 0.00
20, -187500.02, -187500.02, -187500.02, -187500.02, -187500.02, -187500.02, -36853.27, -29052.17, 0.00, 0.00, 0.00
21, -187500.02, -187500.02, -187500.02, -187500.02, -187500.02, -187500.02, -37867.05, -28894.68, 0.00, 0.00, 0.00
22, -187500.02, -187500.02, -187500.02, -187500.02, -187500.02, -187500.02, -35859.59, -28964.60, 0.00, 0.00, 0.00
23, -187500.02, -187500.02, -187500.02, -187500.02, -187500.02, -187500.02, -34454.00, -29148.84, 0.00, 0.00, 0.00
24, -187500.02, -187500.02, -187500.02, -187500.02, -187500.02, -187500.02, -36434.71, -29061.54, 0.00, 0.00, 0.00
25, -187500.02, -187500.02, -187500.02, -187500.02, -187500.02, -187500.02, -37962.31, -28890.17, 0.00, 0.00, 0.00
26, -187500.02, -187500.02, -187500.02, -187500.02, -187500.02, -187500.02, -36309.07, -28913.86, 0.03, 0.89, 0.45
27, -187500.02, -187500.02, -187500.02, -187500.02, -187500.02, -187500.02, -34434.47, -29127.16, 0.00, 0.00, 0.00
28, -187500.02, -187500.02, -187500.02, -187500.02, -187500.02, -187500.02, -35979.40, -29096.20, 0.00, 0.00, 0.00
29, -187500.02, -187500.02, -187500.02, -187500.02, -187500.02, -187500.02, -37917.77, -28906.08, 0.00, 0.00, 0.00
30, -187500.02, -187500.02, -187500.02, -187500.02, -187500.02, -187500.02, -36746.82, -28889.27, 0.00, 0.00, 0.00
31, -187500.02, -187500.02, -187500.02, -187500.02, -187500.02, -187500.02, -34525.84, -29100.43, 0.00, 0.00, 0.00
32, -187500.02, -187500.02, -187500.02, -187500.02, -187500.02, -187500.02, -35491.26, -29127.70, 0.00, 0.00, 0.00
33, -187500.02, -187500.02, -187500.02, -187500.02, -187500.02, -187500.02, -37715.30, -28937.19, 0.00, 0.00, 0.00
34, -187500.02, -187500.02, -187500.02, -187500.02, -187500.02, -187500.02, -37091.11, -28883.26, 0.00, 0.00, 0.00
35, -187500.02, -187500.02, -187500.02, -187500.02, -187500.02, -187500.02, -34672.25, -29083.57, 0.00, 0.00, 0.00
36, -187500.02, -187500.02, -187500.02, -187500.02, -187500.02, -187500.02, -35028.69, -29168.94, 0.03, 0.88, 0.45
37, -187500.02, -187500.02, -187500.02, -187500.02, -187500.02, -187500.02, -37463.80, -28966.45, 0.00, 0.00, 0.00
38, -187500.02, -187500.02, -187500.02, -187500.02, -187500.02, -187500.02, -37428.93, -28876.58, 0.00, 0.00, 0.00
39, -187500.02, -187500.02, -187500.02, -187500.02, -187500.02, -187500.02, -35002.76, -29055.75, 0.00, 0.00, 0.00
40, -187500.02, -187500.02, -187500.02, -187500.02, -187500.02, -187500.02, -34694.40, -29179.82, 0.00, 0.00, 0.00
41, -187500.02, -187500.02, -187500.02, -187500.02, -187500.02, -187500.02, -37117.91, -29002.77, 0.00, 0.00, 0.00
42, -187500.02, -187500.02, -187500.02, -187500.02, -187500.02, -187500.02, -37686.65, -28877.31, 0.00, 0.00, 0.00
43, -187500.02, -187500.02, -187500.02, -187500.02, -187500.02, -187500.02, -35433.84, -28999.96, 0.00, 0.00, 0.00
44, -187500.02, -187500.02, -187500.02, -187500.02, -187500.02, -187500.02, -34470.84, -29167.51, 0.00, 0.00, 0.00
45, -187500.02, -187500.02, -187500.02, -187500.02, -187500.02, -187500.02, -36714.28, -29035.14, 0.00, 0.00, 0.00
46, -187500.02, -187500.02, -187500.02, -187500.02, -187500.02, -187500.02, -37848.81, -28878.21, 0.04, 0.89, 0.45
47, -187500.02, -187500.02, -187500.02, -187500.02, -187500.02, -187500.02, -35832.95, -28973.58, 0.00, 0.00, 0.00
48, -187500.02, -187500.02, -187500.02, -187500.02, -187500.02, -187500.02, -34311.22, -29143.70, 0.00, 0.00, 0.00
49, -187500.02, -187500.02, -187500.02, -187500.02, -187500.02, -187500.02, -36219.97, -29064.11, 0.00, 0.00, 0.00
50, -187500.02, -187500.02, -187500.02, -187500.02, -187500.02, -187500.02, -37853.30, -28890.77, 0.00, 0.00, 0.00
51, -187500.02, -187500.02, -187500.02, -187500.02, -187500.02, -187500.02, -36299.59, -28948.99, 0.00, 0.00, 0.00
52, -187500.02, -187500.02, -187500.02, -187500.02, -187500.02, -187500.02, -34335.00, -29138.11, 0.00, 0.00, 0.00
53, -187500.02, -187500.02, -187500.02, -187500.02, -187500.02, -187500.02, -35774.77, -29096.03, 0.00, 0.00, 0.00
54, -187500.02, -187500.02, -187500.02, -187500.02, -187500.02, -187500.02, -37802.41, -28906.75, 0.00, 0.00, 0.00
55, -187500.02, -187500.02, -187500.02, -187500.02, -187500.02, -187500.02, -36740.10, -28918.15, 0.00, 0.00, 0.00
56, -187500.02, -187500.02, -187500.02, -187500.02, -187500.02, -187500.02, -34458.54, -29124.97, 0.03, 0.89, 0.45
57, -187500.02, -187500.02, -187500.02, -187500.02, -187500.02, -187500.02, -35338.93, -29141.73, 0.00, 0.00, 0.00
58, -187500.02, -187500.02, -187500.02, -187500.02, -187500.02, -187500.02, -37660.86, -28947.05, 0.00, 0.00, 0.00
59, -187500.02, -187500.02, -187500.02, -187500.02, -187500.02, -187500.02, -37153.92, -28906.04, 0.00, 0.00, 0.00
60, -187500.02, -187500.02, -187500.02, -187500.02, -187500.02, -187500.02, -34709.64, -29107.33, 0.00, 0.00, 0.00
61, -187500.02, -187500.02, -187500.02, -187500.02, -187500.02, -187500.02, -34913.22, -29194.26, 0.00, 0.00, 0.00
62, -187500.02, -187500.02, -187500.02, -187500.02, -187500.02, -187500.02, -37340.40, -29017.26, 0.00, 0.00, 0.00
63, -187500.02, -187500.02, -187500.02, -187500.02, -187500.02, -187500.02, -37446.82, -28922.73, 0.00, 0.00, 0.00
64, -187500.02, -187500.02, -187500.02, -187500.02, -187500.02, -187500.02, -35040.49, -29066.88, 0.00, 0.00, 0.00
65, -187500.02, -187500.02, -187500.02, -187500.02, -187500.02, -187500.02, -34583.29, -29202.35, 0.00, 0.00, 0.00
66, -187500.02, -187500.02, -187500.02, -187500.02, -187500.02, -187500.02, -36985.00, -29038.92, 0.03, 0.89, 0.45
67, -187500.02, -187500.02, -187500.02, -187500.02, -187500.02, -187500.02, -37663.96, -28920.94, 0.00, 0.00, 0.00
68, -187500.02, -187500.02, -187500.02, -187500.02, -187500.02, -187500.02, -35421.10, -29026.80, 0.00, 0.00, 0.00
69, -187500.02, -187500.02, -187500.02, -187500.02, -187500.02, -187500.02, -34329.39, -29179.82, 0.00, 0.00, 0.00
70, -187500.02, -187500.02, -187500.02, -187500.02, -187500.02, -187500.02, -36540.88, -29067.93, 0.00, 0.00, 0.00
71, -187500.02, -187500.02, -187500.02, -187500.02, -187500.02, -187500.02, -37781.69, -28915.33, 0.00, 0.00, 0.00
72, -187500.02, -187500.02, -187500.02, -187500.02, -187500.02, -187500.02, -35866.64, -28966.72, 0.00, 0.00, 0.00
73, -187500.02, -187500.02, -187500.02, -187500.02, -187500.02, -187500.02, -34277.52, -29164.80, 0.00, 0.00, 0.00
74, -187500.02, -187500.02, -187500.02, -187500.02, -187500.02, -187500.02, -36142.23, -29099.47, 0.00, 0.00, 0.00
75, -187500.02, -187500.02, -187500.02, -187500.02, -187500.02, -187500.02, -37859.18, -28912.23, 0.00, 0.00, 0.00
76, -187500.02, -187500.02, -187500.02, -187500.02, -187500.02, -187500.02, -36406.27, -28927.45, 0.04, 0.89, 0.45
77, -187500.02, -187500.02, -187500.02, -187500.02, -187500.02, -187500.02, -34405.01, -29139.46, 0.00, 0.00, 0.00
78, -187500.02, -187500.02, -187500.02, -187500.02, -187500.02, -187500.02, -35737.38, -29118.51, 0.00, 0.00, 0.00
79, -187500.02, -187500.02, -187500.02, -187500.02, -187500.02, -187500.02, -37817.18, -28926.06, 0.00, 0.00, 0.00
80, -187500.02, -187500.02, -187500.02, -187500.02, -187500.02, -187500.02, -36862.81, -28903.53, 0.00, 0.00, 0.00
81, -187500.02, -187500.02, -187500.02, -187500.02, -187500.02, -187500.02, -34590.87, -29096.70, 0.00, 0.00, 0.00
82, -187500.02, -187500.02, -187500.02, -187500.02, -187500.02, -187500.02, -35328.72, -29145.82, 0.00, 0.00, 0.00
83, -187500.02, -187500.02, -187500.02, -187500.02, -187500.02, -187500.02, -37651.64, -28959.41, 0.00, 0.00, 0.00
84, -187500.02, -187500.02, -187500.02, -187500.02, -187500.02, -187500.02, -37279.60, -28909.97, 0.00, 0.00, 0.00
85, -187500.02, -187500.02, -187500.02, -187500.02, -187500.02, -187500.02, -34855.13, -29097.88, 0.00, 0.00, 0.00
86, -187500.02, -187500.02, -187500.02, -187500.02, -187500.02, -187500.02, -34929.72, -29182.19, 0.04, 0.88, 0.45
87, -187500.02, -187500.02, -187500.02, -187500.02, -187500.02, -187500.02, -37332.57, -29008.27, 0.00, 0.00, 0.00
88, -187500.02, -187500.02, -187500.02, -187500.02, -187500.02, -187500.02, -37549.12, -28906.88, 0.00, 0.00, 0.00
89, -187500.02, -187500.02, -187500.02, -187500.02, -187500.02, -187500.02, -35198.45, -29043.05, 0.00, 0.00, 0.00
90, -187500.02, -187500.02, -187500.02, -187500.02, -187500.02, -187500.02, -34628.95, -29190.53, 0.00, 0.00, 0.00
91, -187500.02, -187500.02, -187500.02, -187500.02, -187500.02, -187500.02, -36996.18, -29037.53, 0.00, 0.00, 0.00
92, -187500.02, -187500.02, -187500.02, -187500.02, -187500.02, -187500.02, -37796.98, -28892.42, 0.00, 0.00, 0.00
93, -187500.02, -187500.02, -187500.02, -187500.02, -187500.02, -187500.02, -35690.50, -28992.42, 0.00, 0.00, 0.00
94, -187500.02, -187500.02, -187500.02, -187500.02, -187500.02, -187500.02, -34518.49, -29174.32, 0.00, 0.00, 0.00
95, -187500.02, -187500.02, -187500.02, -187500.02, -187500.02, -187500.02, -36601.18, -29069.43, 0.00, 0.00, 0.00
96, -187500.02, -187500.02, -187500.02, -187500.02, -187500.02, -187500.02, -37925.77, -28904.54, 0.04, 0.88, 0.46
97, -187500.02, -187500.02, -187500.02, -187500.02, -187500.02, -187500.02, -36129.85, -28967.66, 0.00, 0.00, 0.00
98, -187500.02, -187500.02, -187500.02, -187500.02, -187500.02, -187500.02, -34445.18, -29163.53, 0.00, 0.00, 0.00
99, -187500.02, -187500.02, -187500.02, -187500.02, -187500.02, -187500.02, -36151.87, -29097.92, 0.00, 0.00, 0.00
100, -187500.02, -187500.02, -187500.02, -187500.02, -187500.02, -187500.02, -37931.22, -28909.63, 0.00, 0.00, 0.00
101, -187500.02, -187500.02, -187500.02, -187500.02, -187500.02, -187500.02, -36611.11, -28921.05, 0.00, 0.00, 0.00
102, -187500.02, -187500.02, -187500.02, -187500.02, -187500.02, -187500.02, -34540.53, -29131.50, 0.00, 0.00, 0.00
103, -187500.02, -187500.02, -187500.02, -187500.02, -187500.02, -187500.02, -35711.40, -29138.78, 0.00, 0.00, 0.00
104, -187500.02, -187500.02, -187500.02, -187500.02, -187500.02, -187500.02, -37826.73, -28937.60, 0.00, 0.00, 0.00
105, -187500.02, -187500.02, -187500.02, -187500.02, -187500.02, -187500.02, -37014.00, -28914.64, 0.04, 0.88, 0.46
106, -187500.02, -187500.02, -187500.02, -187500.02, -187500.02, -187500.02, -34674.95, -29106.13, 0.00, 0.00, 0.00
107, -187500.02, -187500.02, -187500.02, -187500.02, -187500.02, -187500.02, -35245.01, -29170.68, 0.00, 0.00, 0.00
108, -187500.02, -187500.02, -187500.02, -187500.02, -187500.02, -187500.02, -37587.56, -28986.81, 0.00, 0.00, 0.00
109, -187500.02, -187500.02, -187500.02, -187500.02, -187500.02, -187500.02, -37387.18, -28897.43, 0.00, 0.00, 0.00
110, -187500.02, -187500.02, -187500.02, -187500.02, -187500.02, -187500.02, -34993.67, -29073.18, 0.00, 0.00, 0.00
111, -187500.02, -187500.02, -187500.02, -187500.02, -187500.02, -187500.02, -34927.37, -29180.76, 0.00, 0.00, 0.00
112, -187500.02, -187500.02, -187500.02, -187500.02, -187500.02, -187500.02, -37295.65, -29005.14, 0.00, 0.00, 0.00
113, -187500.02, -187500.02, -187500.02, -187500.02, -187500.02, -187500.02, -37641.59, -28890.48, 0.00, 0.00, 0.00
114, -187500.02, -187500.02, -187500.02, -187500.02, -187500.02, -187500.02, -35339.63, -29039.05, 0.00, 0.00, 0.00
115, -187500.02, -187500.02, -187500.02, -187500.02, -187500.02, -187500.02, -34610.80, -29211.81, 0.03, 0.88, 0.46
116, -187500.02, -187500.02, -187500.02, -187500.02, -187500.02, -187500.02, -36913.97, -29057.91, 0.00, 0.00, 0.00
117, -187500.02, -187500.02, -187500.02, -187500.02, -187500.02, -187500.02, -37856.95, -28884.09, 0.00, 0.00, 0.00
118, -187500.02, -187500.02, -187500.02, -187500.02, -187500.02, -187500.02, -35795.36, -28987.39, 0.00, 0.00, 0.00
119, -187500.02, -187500.02, -187500.02, -187500.02, -187500.02, -187500.02, -34480.83, -29183.64, 0.00, 0.00, 0.00
120, -187500.02, -187500.02, -187500.02, -187500.02, -187500.02, -187500.02, -36494.00, -29087.35, 0.00, 0.00, 0.00
121, -187500.02, -187500.02, -187500.02, -187500.02, -187500.02, -187500.02, -37923.76, -28906.73, 0.00, 0.00, 0.00
122, -187500.02, -187500.02, -187500.02, -187500.02, -187500.02, -187500.02, -36216.39, -28966.81, 0.00, 0.00, 0.00
123, -187500.02, -187500.02, -187500.02, -187500.02, -187500.02, -187500.02, -34414.58, -29183.13, 0.00, 0.00, 0.00
124, -187500.02, -187500.02, -187500.02, -187500.02, -187500.02, -187500.02, -36018.09, -29127.94, 0.00, 0.00, 0.00
125, -187500.02, -187500.02, -187500.02, -187500.02, -187500.02, -187500.02, -37865.95, -28918.64, 0.03, 0.88, 0.46
126, -187500.02, -187500.02, -187500.02, -187500.02, -187500.02, -187500.02, -36637.73, -28915.09, 0.00, 0.00, 0.00
127, -187500.02, -187500.02, -187500.02, -187500.02, -187500.02, -187500.02, -34503.20, -29136.26, 0.00, 0.00, 0.00
128, -187500.02, -187500.02, -187500.02, -187500.02, -187500.02, -187500.02, -35575.30, -29157.89, 0.00, 0.00, 0.00
129, -187500.02, -187500.02, -187500.02, -187500.02, -187500.02, -187500.02, -37750.11, -28953.87, 0.00, 0.00, 0.00
130, -187500.02, -187500.02, -187500.02, -187500.02, -187500.02, -187500.02, -37054.32, -28913.19, 0.00, 0.00, 0.00
131, -187500.02, -187500.02, -187500.02, -187500.02, -187500.02, -187500.02, -34693.30, -29113.30, 0.00, 0.00, 0.00
132, -187500.02, -187500.02, -187500.02, -187500.02, -187500.02, -187500.02, -35135.13, -29195.76, 0.00, 0.00, 0.00
133, -187500.02, -187500.02, -187500.02, -187500.02, -187500.02, -187500.02, -37492.41, -29004.27, 0.00, 0.00, 0.00
134, -187500.02, -187500.02, -187500.02, -187500.02, -187500.02, -187500.02, -37356.29, -28919.92, 0.00, 0.00, 0.00
135, -187500.02, -187500.02, -187500.02, -187500.02, -187500.02, -187500.02, -34963.80, -29060.80, 0.04, 0.89, 0.46
136, -187500.02, -187500.02, -187500.02, -187500.02, -187500.02, -187500.02, -34758.39, -29183.87, 0.00, 0.00, 0.00
137, -187500.02, -187500.02, -187500.02, -187500.02, -187500.02, -187500.02, -37131.21, -29014.33, 0.00, 0.00, 0.00
138, -187500.02, -187500.02, -187500.02, -187500.02, -187500.02, -187500.02, -37609.43, -28892.42, 0.00, 0.00, 0.00
139, -187500.02, -187500.02, -187500.02, -187500.02, -187500.02, -187500.02, -35352.43, -29025.59, 0.00, 0.00, 0.00
140, -187500.02, -187500.02, -187500.02, -187500.02, -187500.02, -187500.02, -34520.08, -29210.35, 0.00, 0.00, 0.00
141, -187500.02, -187500.02, -187500.02, -187500.02, -187500.02, -187500.02, -36775.75, -29077.54, 0.00, 0.00, 0.00
142, -187500.02, -187500.02, -187500.02, -187500.02, -187500.02, -187500.02, -37775.77, -28920.85, 0.00, 0.00, 0.00
143, -187500.02, -187500.02, -187500.02, -187500.02, -187500.02, -187500.02, -35767.98, -29015.63, 0.00, 0.00, 0.00
144, -187500.02, -187500.02, -187500.02, -187500.02, -187500.02, -187500.02, -34400.77, -29187.91, 0.00, 0.00, 0.00
145, -187500.02, -187500.02, -187500.02, -187500.02, -187500.02, -187500.02, -36352.03, -29098.86, 0.03, 0.88, 0.46
146, -187500.02, -187500.02, -187500.02, -187500.02, -187500.02, -187500.02, -37883.03, -28923.56, 0.00, 0.00, 0.00
147, -187500.02, -187500.02, -187500.02, -187500.02, -187500.02, -187500.02, -36263.16, -28959.23, 0.00, 0.00, 0.00
148, -187500.02, -187500.02, -187500.02, -187500.02, -187500.02, -187500.02, -34380.87, -29167.37, 0.00, 0.00, 0.00
149, -187500.02, -187500.02, -187500.02, -187500.02, -187500.02, -187500.02, -35886.64, -29139.77, 0.00, 0.00, 0.00
150, -187500.02, -187500.02, -187500.02, -187500.02, -187500.02, -187500.02, -37813.16, -28935.09, 0.00, 0.00, 0.00
151, -187500.02, -187500.02, -187500.02, -187500.02, -187500.02, -187500.02, -36695.50, -28929.84, 0.00, 0.00, 0.00
152, -187500.02, -187500.02, -187500.02, -187500.02, -187500.02, -187500.02, -34505.62, -29138.98, 0.00, 0.00, 0.00
153, -187500.02, -187500.02, -187500.02, -187500.02, -187500.02, -187500.02, -35437.84, -29174.93, 0.00, 0.00, 0.00
154, -187500.02, -187500.02, -187500.02, -187500.02, -187500.02, -187500.02, -37647.54, -28983.46, 0.00, 0.00, 0.00
155, -187500.02, -187500.02, -187500.02, -187500.02, -187500.02, -187500.02, -37086.28, -28907.09, 0.03, 0.88, 0.46
156, -187500.02, -187500.02, -187500.02, -187500.02, -187500.02, -187500.02, -34699.20, -29088.40, 0.00, 0.00, 0.00
157, -187500.02, -187500.02, -187500.02, -187500.02, -187500.02, -187500.02, -35009.02, -29158.23, 0.00, 0.00, 0.00
158, -187500.02, -187500.02, -187500.02, -187500.02, -187500.02, -187500.02, -37376.99, -28979.91, 0.00, 0.00, 0.00
159, -187500.02, -187500.02, -187500.02, -187500.02, -187500.02, -187500.02, -37398.98, -28897.54, 0.00, 0.00, 0.00
160, -187500.02, -187500.02, -187500.02, -187500.02, -187500.02, -187500.02, -35036.16, -29067.19, 0.00, 0.00, 0.00
161, -187500.02, -187500.02, -187500.02, -187500.02, -187500.02, -187500.02, -34671.78, -29201.10, 0.00, 0.00, 0.00
162, -187500.02, -187500.02, -187500.02, -187500.02, -187500.02, -187500.02, -37052.82, -29037.62, 0.00, 0.00, 0.00
163, -187500.02, -187500.02, -187500.02, -187500.02, -187500.02, -187500.02, -37645.07, -28904.18, 0.00, 0.00, 0.00
164, -187500.02, -187500.02, -187500.02, -187500.02, -187500.02, -187500.02, -35429.66, -29029.15, 0.00, 0.00, 0.00
165, -187500.02, -187500.02, -187500.02, -187500.02, -187500.02, -187500.02, -34458.48, -29203.92, 0.03, 0.88, 0.46
166, -187500.02, -187500.02, -187500.02, -187500.02, -187500.02, -187500.02, -36623.33, -29077.54, 0.00, 0.00, 0.00
167, -187500.02, -187500.02, -187500.02, -187500.02, -187500.02, -187500.02, -37762.42, -28908.83, 0.00, 0.00, 0.00
168, -187500.02, -187500.02, -187500.02, -187500.02, -187500.02, -187500.02, -35863.24, -28977.25, 0.00, 0.00, 0.00
169, -187500.02, -187500.02, -187500.02, -187500.02, -187500.02, -187500.02, -34329.84, -29186.28, 0.00, 0.00, 0.00
170, -187500.02, -187500.02, -187500.02, -187500.02, -187500.02, -187500.02, -36175.00, -29128.93, 0.00, 0.00, 0.00
171, -187500.02, -187500.02, -187500.02, -187500.02, -187500.02, -187500.02, -37789.47, -28933.93, 0.00, 0.00, 0.00
172, -187500.02, -187500.02, -187500.02, -187500.02, -187500.02, -187500.02, -36283.83, -28945.49, 0.00, 0.00, 0.00
173, -187500.02, -187500.02, -187500.02, -187500.02, -187500.02, -187500.02, -34308.65, -29158.27, 0.00, 0.00, 0.00
174, -187500.02, -187500.02, -187500.02, -187500.02, -187500.02, -187500.02, -35692.54, -29149.24, 0.00, 0.00, 0.00
175, -187500.02, -187500.02, -187500.02, -187500.02, -187500.02, -187500.02, -37711.68, -28962.70, 0.03, 0.88, 0.45
176, -187500.02, -187500.02, -187500.02, -187500.02, -187500.02, -187500.02, -36671.07, -28930.11, 0.00, 0.00, 0.00
177, -187500.02, -187500.02, -187500.02, -187500.02, -187500.02, -187500.02, -34408.48, -29111.67, 0.00, 0.00, 0.00
178, -187500.02, -187500.02, -187500.02, -187500.02, -187500.02, -187500.02, -35234.71, -29169.45, 0.00, 0.00, 0.00
179, -187500.02, -187500.02, -187500.02, -187500.02, -187500.02, -187500.02, -37529.70, -28980.47, 0.00, 0.00, 0.00
180, -187500.02, -187500.02, -187500.02, -187500.02, -187500.02, -187500.02, -37091.29, -28897.14, 0.00, 0.00, 0.00
181, -187500.02, -187500.02, -187500.02, -187500.02, -187500.02, -187500.02, -34720.84, -29062.72, 0.00, 0.00, 0.00
182, -187500.02, -187500.02, -187500.02, -187500.02, -187500.02, -187500.02, -34874.44, -29171.04, 0.00, 0.00, 0.00
183, -187500.02, -187500.02, -187500.02, -187500.02, -187500.02, -187500.02, -37289.61, -29001.14, 0.00, 0.00, 0.00
184, -187500.02, -187500.02, -187500.02, -187500.02, -187500.02, -187500.02, -37439.44, -28912.90, 0.00, 0.00, 0.00
185, -187500.02, -187500.02, -187500.02, -187500.02, -187500.02, -187500.02, -35083.59, -29064.13, 0.04, 0.89, 0.45
186, -187500.02, -187500.02, -187500.02, -187500.02, -187500.02, -187500.02, -34634.59, -29179.51, 0.00, 0.00, 0.00
187, -187500.02, -187500.02, -187500.02, -187500.02, -187500.02, -187500.02, -36962.99, -29040.82, 0.00, 0.00, 0.00
188, -187500.02, -187500.02, -187500.02, -187500.02, -187500.02, -187500.02, -37645.77, -28915.65, 0.00, 0.00, 0.00
189, -187500.02, -187500.02, -187500.02, -187500.02, -187500.02, -187500.02, -35479.06, -29024.81, 0.00, 0.00, 0.00
190, -187500.02, -187500.02, -187500.02, -187500.02, -187500.02, -187500.02, -34390.26, -29209.84, 0.00, 0.00, 0.00
191, -187500.02, -187500.02, -187500.02, -187500.02, -187500.02, -187500.02, -36534.73, -29100.27, 0.00, 0.00, 0.00
192, -187500.02, -187500.02, -187500.02, -187500.02, -187500.02, -187500.02, -37794.74, -28921.93, 0.00, 0.00, 0.00
193, -187500.02, -187500.02, -187500.02, -187500.02, -187500.02, -187500.02, -35965.32, -28981.20, 0.00, 0.00, 0.00
194, -187500.02, -187500.02, -187500.02, -187500.02, -187500.02, -187500.02, -34331.43, -29188.76, 0.03, 0.89, 0.46
195, -187500.02, -187500.02, -187500.02, -187500.02, -187500.02, -187500.02, -36096.32, -29120.01, 0.00, 0.00, 0.00
196, -187500.02, -187500.02, -187500.02, -187500.02, -187500.02, -187500.02, -37809.34, -28928.97, 0.00, 0.00, 0.00
197, -187500.02, -187500.02, -187500.02, -187500.02, -187500.02, -187500.02, -36403.23, -28956.06, 0.00, 0.00, 0.00
198, -187500.02, -187500.02, -187500.02, -187500.02, -187500.02, -187500.02, -34395.91, -29160.00, 0.00, 0.00, 0.00
199, -187500.02, -187500.02, -187500.02, -187500.02, -187500.02, -187500.02, -35659.55, -29145.47, 0.00, 0.00, 0.00
200, -187500.02, -187500.02, -187500.02, -187500.02, -187500.02, -187500.02, -37737.10, -28943.14, 0.00, 0.00, 0.00
201, -187500.02, -187500.02, -187500.02, -187500.02, -187500.02, -187500.02, -36854.02, -28927.20, 0.00, 0.00, 0.00
202, -187500.02, -187500.02, -187500.02, -187500.02, -187500.02, -187500.02, -34549.11, -29144.64, 0.00, 0.00, 0.00
203, -187500.02, -187500.02, -187500.02, -187500.02, -187500.02, -187500.02, -35235.45, -29196.72, 0.00, 0.00, 0.00
204, -187500.02, -187500.02, -187500.02, -187500.02, -187500.02, -187500.02, -37554.08, -28982.19, 0.04, 0.88, 0.46
205, -187500.02, -187500.02, -187500.02, -187500.02, -187500.02, -187500.02, -37216.70, -28911.85, 0.00, 0.00, 0.00
206, -187500.02, -187500.02, -187500.02, -187500.02, -187500.02, -187500.02, -34839.91, -29088.09, 0.00, 0.00, 0.00
207, -187500.02, -187500.02, -187500.02, -187500.02, -187500.02, -187500.02, -34857.45, -29198.11, 0.00, 0.00, 0.00
208, -187500.02, -187500.02, -187500.02, -187500.02, -187500.02, -187500.02, -37260.11, -29031.99, 0.00, 0.00, 0.00
209, -187500.02, -187500.02, -187500.02, -187500.02, -187500.02, -187500.02, -37533.56, -28912.40, 0.00, 0.00, 0.00
210, -187500.02, -187500.02, -187500.02, -187500.02, -187500.02, -187500.02, -35245.79, -29048.35, 0.00, 0.00, 0.00
211, -187500.02, -187500.02, -187500.02, -187500.02, -187500.02, -187500.02, -34602.13, -29207.00, 0.00, 0.00, 0.00
212, -187500.02, -187500.02, -187500.02, -187500.02, -187500.02, -187500.02, -36891.93, -29074.66, 0.00, 0.00, 0.00
213, -187500.02, -187500.02, -187500.02, -187500.02, -187500.02, -187500.02, -37726.75, -28929.21, 0.00, 0.00, 0.00
214, -187500.02, -187500.02, -187500.02, -187500.02, -187500.02, -187500.02, -35637.53, -29014.60, 0.04, 0.88, 0.46
215, -187500.02, -187500.02, -187500.02, -187500.02, -187500.02, -187500.02, -34422.60, -29190.66, 0.00, 0.00, 0.00
216, -187500.02, -187500.02, -187500.02, -187500.02, -187500.02, -187500.02, -36480.37, -29104.90, 0.00, 0.00, 0.00
217, -187500.02, -187500.02, -187500.02, -187500.02, -187500.02, -187500.02, -37800.53, -28955.59, 0.00, 0.00, 0.00
218, -187500.02, -187500.02, -187500.02, -187500.02, -187500.02, -187500.02, -36052.47, -29021.55, 0.00, 0.00, 0.00
219, -187500.02, -187500.02, -187500.02, -187500.02, -187500.02, -187500.02, -34349.73, -29190.30, 0.00, 0.00, 0.00
220, -187500.02, -187500.02, -187500.02, -187500.02, -187500.02, -187500.02, -36012.77, -29128.90, 0.00, 0.00, 0.00
221, -187500.02, -187500.02, -187500.02, -187500.02, -187500.02, -187500.02, -37787.32, -28965.69, 0.00, 0.00, 0.00
222, -187500.02, -187500.02, -187500.02, -187500.02, -187500.02, -187500.02, -36491.10, -28966.68, 0.00, 0.00, 0.00
223, -187500.02, -187500.02, -187500.02, -187500.02, -187500.02, -187500.02, -34413.10, -29157.96, 0.00, 0.00, 0.00
224, -187500.02, -187500.02, -187500.02, -187500.02, -187500.02, -187500.02, -35563.66, -29177.38, 0.04, 0.88, 0.47
225, -187500.02, -187500.02, -187500.02, -187500.02, -187500.02, -187500.02, -37696.82, -28983.26, 0.00, 0.00, 0.00
226, -187500.02, -187500.02, -187500.02, -187500.02, -187500.02, -187500.02, -36936.68, -28923.18, 0.00, 0.00, 0.00
227, -187500.02, -187500.02, -187500.02, -187500.02, -187500.02, -187500.02, -34636.69, -29114.33, 0.00, 0.00, 0.00
228, -187500.02, -187500.02, -187500.02, -187500.02, -187500.02, -187500.02, -35145.97, -29193.43, 0.00, 0.00, 0.00
229, -187500.02, -187500.02, -187500.02, -187500.02, -187500.02, -187500.02, -37457.88, -29009.23, 0.00, 0.00, 0.00
230, -187500.02, -187500.02, -187500.02, -187500.02, -187500.02, -187500.02, -37259.75, -28936.59, 0.00, 0.00, 0.00
231, -187500.02, -187500.02, -187500.02, -187500.02, -187500.02, -187500.02, -34895.99, -29114.35, 0.00, 0.00, 0.00
232, -187500.02, -187500.02, -187500.02, -187500.02, -187500.02, -187500.02, -34828.18, -29230.07, 0.00, 0.00, 0.00
233, -187500.02, -187500.02, -187500.02, -187500.02, -187500.02, -187500.02, -37194.29, -29066.52, 0.00, 0.00, 0.00
234, -187500.02, -187500.02, -187500.02, -187500.02, -187500.02, -187500.02, -37581.89, -28974.59, 0.04, 0.88, 0.47
235, -187500.02, -187500.02, -187500.02, -187500.02, -187500.02, -187500.02, -35310.59, -29082.99, 0.00, 0.00, 0.00
236, -187500.02, -187500.02, -187500.02, -187500.02, -187500.02, -187500.02, -34542.52, -29246.41, 0.00, 0.00, 0.00
237, -187500.02, -187500.02, -187500.02, -187500.02, -187500.02, -187500.02, -36797.14, -29100.27, 0.00, 0.00, 0.00
238, -187500.02, -187500.02, -187500.02, -187500.02, -187500.02, -187500.02, -37720.71, -28919.45, 0.00, 0.00, 0.00
239, -187500.02, -187500.02, -187500.02, -187500.02, -187500.02, -187500.02, -35667.82, -29015.33, 0.00, 0.00, 0.00
240, -187500.02, -187500.02, -187500.02, -187500.02, -187500.02, -187500.02, -34345.18, -29209.33, 0.00, 0.00, 0.00
241, -187500.02, -187500.02, -187500.02, -187500.02, -187500.02, -187500.02, -36342.17, -29104.92, 0.00, 0.00, 0.00
242, -187500.02, -187500.02, -187500.02, -187500.02, -187500.02, -187500.02, -37790.43, -28933.64, 0.00, 0.00, 0.00
243, -187500.02, -187500.02, -187500.02, -187500.02, -187500.02, -187500.02, -36133.94, -28990.50, 0.00, 0.00, 0.00
244, -187500.02, -187500.02, -187500.02, -187500.02, -187500.02, -187500.02, -34340.84, -29192.99, 0.03, 0.88, 0.46
245, -187500.02, -187500.02, -187500.02, -187500.02, -187500.02, -187500.02, -35888.16, -29141.22, 0.00, 0.00, 0.00
246, -187500.02, -187500.02, -187500.02, -187500.02, -187500.02, -187500.02, -37727.73, -28962.61, 0.00, 0.00, 0.00
247, -187500.02, -187500.02, -187500.02, -187500.02, -187500.02, -187500.02, -36551.20, -28962.61, 0.00, 0.00, 0.00
248, -187500.02, -187500.02, -187500.02, -187500.02, -187500.02, -187500.02, -34420.61, -29163.71, 0.00, 0.00, 0.00
249, -187500.02, -187500.02, -187500.02, -187500.02, -187500.02, -187500.02, -35434.53, -29170.99, 0.00, 0.00, 0.00
250, -187500.02, -187500.02, -187500.02, -187500.02, -187500.02, -187500.02, -37583.72, -28990.17, 0.00, 0.00, 0.00
251, -187500.02, -187500.02, -187500.02, -187500.02, -187500.02, -187500.02, -36936.19, -28955.23, 0.00, 0.00, 0.00
252, -187500.02, -187500.02, -187500.02, -187500.02, -187500.02, -187500.02, -34615.12, -29151.19, 0.00, 0.00, 0.00
253, -187500.02, -187500.02, -187500.02, -187500.02, -187500.02, -187500.02, -35022.28, -29226.09, 0.00, 0.00, 0.00
254, -187500.02, -187500.02, -187500.02, -187500.02, -187500.02, -187500.02, -37357.09, -29018.40, 0.03, 0.88, 0.46
255, -187500.02, -187500.02, -187500.02, -187500.02, -187500.02, -187500.02, -37293.10, -28936.66, 0.00, 0.00, 0.00
0, -187500.02, -187500.02, -187500.02, -187500.02, -187500.02, -187500.02, -34916.44, -29089.12, 0.00, 0.00, 0.00
1, -187500.02, -187500.02, -187500.02, -187500.02, -187500.02, -187500.02, -34651.11, -29232.93, 0.00, 0.00, 0.00
2, -187500.02, -187500.02, -187500.02, -187500.02, -187500.02, -187500.02, -37016.25, -29078.28, 0.00, 0.00, 0.00
3, -187500.02, -187500.02, -187500.02, -187500.02, -187500.02, -187500.02, -37530.43, -28931.74, 0.00, 0.00, 0.00
4, -187500.02, -187500.02, -187500.02, -187500.02, -187500.02, -187500.02, -35301.61, -29060.64, 0.00, 0.00, 0.00
5, -187500.02, -187500.02, -187500.02, -187500.02, -187500.02, -187500.02, -34422.73, -29223.14, 0.00, 0.00, 0.00
6, -187500.02, -187500.02, -187500.02, -187500.02, -187500.02, -187500.02, -36619.20, -29098.86, 0.00, 0.00, 0.00
7, -187500.02, -187500.02, -187500.02, -187500.02, -187500.02, -187500.02, -37656.63, -28941.87, 0.00, 0.00, 0.00
8, -187500.02, -187500.02, -187500.02, -187500.02, -187500.02, -187500.02, -35689.34, -29022.98, 0.03, 0.89, 0.45
9, -187500.02, -187500.02, -187500.02, -187500.02, -187500.02, -187500.02, -34240.50, -29223.25, 0.00, 0.00, 0.00
10, -187500.02, -187500.02, -187500.02, -187500.02, -187500.02, -187500.02, -36147.06, -29134.65, 0.00, 0.00, 0.00
11, -187500.02, -187500.02, -187500.02, -187500.02, -187500.02, -187500.02, -37663.54, -28962.14, 0.00, 0.00, 0.00
12, -187500.02, -187500.02, -187500.02, -187500.02, -187500.02, -187500.02, -36092.95, -29010.28, 0.00, 0.00, 0.00
13, -187500.02, -187500.02, -187500.02, -187500.02, -187500.02, -187500.02, -34235.03, -29216.90, 0.00, 0.00, 0.00
14, -187500.02, -187500.02, -187500.02, -187500.02, -187500.02, -187500.02, -35729.91, -29176.54, 0.00, 0.00, 0.00
15, -187500.02, -187500.02, -187500.02, -187500.02, -187500.02, -187500.02, -37651.87, -28987.98, 0.00, 0.00, 0.00
16, -187500.02, -187500.02, -187500.02, -187500.02, -187500.02, -187500.02, -36569.55, -28963.21, 0.00, 0.00, 0.00
17, -187500.02, -187500.02, -187500.02, -187500.02, -187500.02, -187500.02, -34375.73, -29150.36, 0.00, 0.00, 0.00
18, -187500.02, -187500.02, -187500.02, -187500.02, -187500.02, -187500.02, -35281.29, -29188.72, 0.02, 0.89, 0.46
19, -187500.02, -187500.02, -187500.02, -187500.02, -187500.02, -187500.02, -37557.50, -28991.51, 0.00, 0.00, 0.00
20, -187500.02, -187500.02, -187500.02, -187500.02, -187500.02, -187500.02, -37056.64, -28937.71, 0.00, 0.00, 0.00
21, -187500.02, -187500.02, -187500.02, -187500.02, -187500.02, -187500.02, -34723.68, -29123.14, 0.00, 0.00, 0.00
22, -187500.02, -187500.02, -187500.02, -187500.02, -187500.02, -187500.02, -34989.69, -29212.19, 0.00, 0.00, 0.00
23, -187500.02, -187500.02, -187500.02, -187500.02, -187500.02, -187500.02, -37311.90, -29036.01, 0.00, 0.00, 0.00
24, -187500.02, -187500.02, -187500.02, -187500.02, -187500.02, -187500.02, -37349.94, -28940.57, 0.00, 0.00, 0.00
25, -187500.02, -187500.02, -187500.02, -187500.02, -187500.02, -187500.02, -35027.30, -29103.38, 0.00, 0.00, 0.00
26, -187500.02, -187500.02, -187500.02, -187500.02, -187500.02, -187500.02, -34644.44, -29224.68, 0.00, 0.00, 0.00
27, -187500.02, -187500.02, -187500.02, -187500.02, -187500.02, -187500.02, -36961.00, -29051.88, 0.02, 0.88, 0.46
28, -187500.02, -187500.02, -187500.02, -187500.02, -187500.02, -187500.02, -37584.82, -28921.73, 0.00, 0.00, 0.00
29, -187500.02, -187500.02, -187500.02, -187500.02, -187500.02, -187500.02, -35430.33, -29039.65, 0.00, 0.00, 0.00
30, -187500.02, -187500.02, -187500.02, -187500.02, -187500.02, -187500.02, -34420.88, -29225.11, 0.00, 0.00, 0.00
31, -187500.02, -187500.02, -187500.02, -187500.02, -187500.02, -187500.02, -36555.20, -29119.20, 0.00, 0.00, 0.00
32, -187500.02, -187500.02, -187500.02, -187500.02, -187500.02, -187500.02, -37713.32, -28951.70, 0.00, 0.00, 0.00
33, -187500.02, -187500.02, -187500.02, -187500.02, -187500.02, -187500.02, -35886.75, -29017.17, 0.00, 0.00, 0.00
34, -187500.02, -187500.02, -187500.02, -187500.02, -187500.02, -187500.02, -34378.03, -29201.79, 0.00, 0.00, 0.00
35, -187500.02, -187500.02, -187500.02, -187500.02, -187500.02, -187500.02, -36175.14, -29141.06, 0.00, 0.00, 0.00
36, -187500.02, -187500.02, -187500.02, -187500.02, -187500.02, -187500.02, -37810.01, -28970.50, 0.00, 0.00, 0.00
37, -187500.02, -187500.02, -187500.02, -187500.02, -187500.02, -187500.02, -36366.76, -28982.70, 0.02, 0.87, 0.46
38, -187500.02, -187500.02, -187500.02, -187500.02, -187500.02, -187500.02, -34422.96, -29180.87, 0.00, 0.00, 0.00
39, -187500.02, -187500.02, -187500.02, -187500.02, -187500.02, -187500.02, -35750.30, -29171.64, 0.00, 0.00, 0.00
40, -187500.02, -187500.02, -187500.02, -187500.02, -187500.02, -187500.02, -37741.50, -28993.05, 0.00, 0.00, 0.00
41, -187500.02, -187500.02, -187500.02, -187500.02, -187500.02, -187500.02, -36791.77, -28976.40, 0.00, 0.00, 0.00
42, -187500.02, -187500.02, -187500.02, -187500.02, -187500.02, -187500.02, -34561.20, -29169.88, 0.00, 0.00, 0.00
43, -187500.02, -187500.02, -187500.02, -187500.02, -187500.02, -187500.02, -35294.97, -29232.15, 0.00, 0.00, 0.00
44, -187500.02, -187500.02, -187500.02, -187500.02, -187500.02, -187500.02, -37507.14, -29034.22, 0.00, 0.00, 0.00
45, -187500.02, -187500.02, -187500.02, -187500.02, -187500.02, -187500.02, -37104.83, -28961.45, 0.00, 0.00, 0.00
46, -187500.02, -187500.02, -187500.02, -187500.02, -187500.02, -187500.02, -34774.13, -29128.99, 0.00, 0.00, 0.00
47, -187500.02, -187500.02, -187500.02, -187500.02, -187500.02, -187500.02, -34881.35, -29214.24, 0.03, 0.88, 0.46
48, -187500.02, -187500.02, -187500.02, -187500.02, -187500.02, -187500.02, -37227.48, -29038.96, 0.00, 0.00, 0.00
49, -187500.02, -187500.02, -187500.02, -187500.02, -187500.02, -187500.02, -37399.63, -28945.04, 0.00, 0.00, 0.00
50, -187500.02, -187500.02, -187500.02, -187500.02, -187500.02, -187500.02, -35120.00, -29088.25, 0.00, 0.00, 0.00
51, -187500.02, -187500.02, -187500.02, -187500.02, -187500.02, -187500.02, -34596.95, -29213.08, 0.00, 0.00, 0.00
52, -187500.02, -187500.02, -187500.02, -187500.02, -187500.02, -187500.02, -36882.99, -29058.00, 0.00, 0.00, 0.00
53, -187500.02, -187500.02, -187500.02, -187500.02, -187500.02, -187500.02, -37605.13, -28937.28, 0.00, 0.00, 0.00
54, -187500.02, -187500.02, -187500.02, -187500.02, -187500.02, -187500.02, -35476.62, -29052.80, 0.00, 0.00, 0.00
55, -187500.02, -187500.02, -187500.02, -187500.02, -187500.02, -187500.02, -34364.00, -29229.13, 0.00, 0.00, 0.00
56, -187500.02, -187500.02, -187500.02, -187500.02, -187500.02, -187500.02, -36434.04, -29135.63, 0.00, 0.00, 0.00
57, -187500.02, -187500.02, -187500.02, -187500.02, -187500.02, -187500.02, -37683.72, -28966.83, 0.03, 0.88, 0.46
58, -187500.02, -187500.02, -187500.02, -187500.02, -187500.02, -187500.02, -35916.35, -29009.08, 0.00, 0.00, 0.00
59, -187500.02, -187500.02, -187500.02, -187500.02, -187500.02, -187500.02, -34274.97, -29193.32, 0.00, 0.00, 0.00
60, -187500.02, -187500.02, -187500.02, -187500.02, -187500.02, -187500.02, -35968.36, -29138.40, 0.00, 0.00, 0.00
61, -187500.02, -187500.02, -187500.02, -187500.02, -187500.02, -187500.02, -37680.21, -28960.95, 0.00, 0.00, 0.00
62, -187500.02, -187500.02, -187500.02, -187500.02, -187500.02, -187500.02, -36334.77, -28988.36, 0.00, 0.00, 0.00
63, -187500.02, -187500.02, -187500.02, -187500.02, -187500.02, -187500.02, -34310.64, -29210.53, 0.00, 0.00, 0.00
64, -187500.02, -187500.02, -187500.02, -187500.02, -187500.02, -187500.02, -35527.09, -29188.34, 0.00, 0.00, 0.00
65, -187500.02, -187500.02, -187500.02, -187500.02, -187500.02, -187500.02, -37572.36, -28984.69, 0.00, 0.00, 0.00
66, -187500.02, -187500.02, -187500.02, -187500.02, -187500.02, -187500.02, -36731.83, -28949.38, 0.00, 0.00, 0.00
67, -187500.02, -187500.02, -187500.02, -187500.02, -187500.02, -187500.02, -34475.60, -29137.26, 0.03, 0.88, 0.47
68, -187500.02, -187500.02, -187500.02, -187500.02, -187500.02, -187500.02, -35096.06, -29200.81, 0.00, 0.00, 0.00
69, -187500.02, -187500.02, -187500.02, -187500.02, -187500.02, -187500.02, -37346.50, -29014.37, 0.00, 0.00, 0.00
70, -187500.02, -187500.02, -187500.02, -187500.02, -187500.02, -187500.02, -37051.08, -28938.85, 0.00, 0.00, 0.00
71, -187500.02, -187500.02, -187500.02, -187500.02, -187500.02, -187500.02, -34692.34, -29125.37, 0.00, 0.00, 0.00
72, -187500.02, -187500.02, -187500.02, -187500.02, -187500.02, -187500.02, -34695.88, -29229.06, 0.00, 0.00, 0.00
73, -187500.02, -187500.02, -187500.02, -187500.02, -187500.02, -187500.02, -37057.74, -29059.26, 0.00, 0.00, 0.00
74, -187500.02, -187500.02, -187500.02, -187500.02, -187500.02, -187500.02, -37352.80, -28946.20, 0.00, 0.00, 0.00
75, -187500.02, -187500.02, -187500.02, -187500.02, -187500.02, -187500.02, -35084.82, -29080.87, 0.00, 0.00, 0.00
76, -187500.02, -187500.02, -187500.02, -187500.02, -187500.02, -187500.02, -34413.71, -29233.67, 0.00, 0.00, 0.00
77, -187500.02, -187500.02, -187500.02, -187500.02, -187500.02, -187500.02, -36674.94, -29090.59, 0.03, 0.88, 0.47
78, -187500.02, -187500.02, -187500.02, -187500.02, -187500.02, -187500.02, -37535.11, -28957.67, 0.00, 0.00, 0.00
79, -187500.02, -187500.02, -187500.02, -187500.02, -187500.02, -187500.02, -35478.79, -29051.34, 0.00, 0.00, 0.00
80, -187500.02, -187500.02, -187500.02, -187500.02, -187500.02, -187500.02, -34216.05, -29209.19, 0.00, 0.00, 0.00
81, -187500.02, -187500.02, -187500.02, -187500.02, -187500.02, -187500.02, -36228.71, -29108.05, 0.00, 0.00, 0.00
82, -187500.02, -187500.02, -187500.02, -187500.02, -187500.02, -187500.02, -37585.04, -28954.70, 0.00, 0.00, 0.00
83, -187500.02, -187500.02, -187500.02, -187500.02, -187500.02, -187500.02, -35854.23, -29013.55, 0.00, 0.00, 0.00
84, -187500.02, -187500.02, -187500.02, -187500.02, -187500.02, -187500.02, -34115.38, -29211.81, 0.00, 0.00, 0.00
85, -187500.02, -187500.02, -187500.02, -187500.02, -187500.02, -187500.02, -35741.09, -29160.51, 0.00, 0.00, 0.00
86, -187500.02, -187500.02, -187500.02, -187500.02, -187500.02, -187500.02, -37564.09, -28975.26, 0.00, 0.00, 0.00
87, -187500.02, -187500.02, -187500.02, -187500.02, -187500.02, -187500.02, -36314.95, -28983.19, 0.02, 0.88, 0.47
88, -187500.02, -187500.02, -187500.02, -187500.02, -187500.02, -187500.02, -34201.30, -29185.68, 0.00, 0.00, 0.00
89, -187500.02, -187500.02, -187500.02, -187500.02, -187500.02, -187500.02, -35274.11, -29193.10, 0.00, 0.00, 0.00
90, -187500.02, -187500.02, -187500.02, -187500.02, -187500.02, -187500.02, -37372.94, -29009.99, 0.00, 0.00, 0.00
91, -187500.02, -187500.02, -187500.02, -187500.02, -187500.02, -187500.02, -36642.13, -28968.66, 0.00, 0.00, 0.00
92, -187500.02, -187500.02, -187500.02, -187500.02, -187500.02, -187500.02, -34351.70, -29144.77, 0.00, 0.00, 0.00
93, -187500.02, -187500.02, -187500.02, -187500.02, -187500.02, -187500.02, -34829.98, -29205.37, 0.00, 0.00, 0.00
94, -187500.02, -187500.02, -187500.02, -187500.02, -187500.02, -187500.02, -37111.02, -29031.70, 0.00, 0.00, 0.00
95, -187500.02, -187500.02, -187500.02, -187500.02, -187500.02, -187500.02, -36946.23, -28954.52, 0.00, 0.00, 0.00
96, -187500.02, -187500.02, -187500.02, -187500.02, -187500.02, -187500.02, -34597.08, -29108.72, 0.00, 0.00, 0.00
97, -187500.02, -187500.02, -187500.02, -187500.02, -187500.02, -187500.02, -34440.71, -29222.69, 0.03, 0.88, 0.47
98, -187500.02, -187500.02, -187500.02, -187500.02, -187500.02, -187500.02, -36782.59, -29067.15, 0.00, 0.00, 0.00
99, -187500.02, -187500.02, -187500.02, -187500.02, -187500.02, -187500.02, -37198.71, -28951.12, 0.00, 0.00, 0.00
100, -187500.02, -187500.02, -187500.02, -187500.02, -187500.02, -187500.02, -34929.94, -29081.74, 0.00, 0.00, 0.00
101, -187500.02, -187500.02, -187500.02, -187500.02, -187500.02, -187500.02, -34134.67, -29242.90, 0.00, 0.00, 0.00
102, -187500.02, -187500.02, -187500.02, -187500.02, -187500.02, -187500.02, -36368.68, -29116.10, 0.00, 0.00, 0.00
103, -187500.02, -187500.02, -187500.02, -187500.02, -187500.02, -187500.02, -37314.70, -28973.63, 0.00, 0.00, 0.00
104, -187500.02, -187500.02, -187500.02, -187500.02, -187500.02, -187500.02, -35305.88, -29053.40, 0.00, 0.00, 0.00
105, -187500.02, -187500.02, -187500.02, -187500.02, -187500.02, -187500.02, -33945.50, -29232.26, 0.00, 0.00, 0.00
106, -187500.02, -187500.02, -187500.02, -187500.02, -187500.02, -187500.02, -35900.50, -29136.30, 0.00, 0.00, 0.00
107, -187500.02, -187500.02, -187500.02, -187500.02, -187500.02, -187500.02, -37371.27, -28962.58, 0.02, 0.88, 0.47
108, -187500.02, -187500.02, -187500.02, -187500.02, -187500.02, -187500.02, -35755.32, -29007.94, 0.00, 0.00, 0.00
109, -187500.02, -187500.02, -187500.02, -187500.02, -187500.02, -187500.02, -33899.97, -29216.23, 0.00, 0.00, 0.00
110, -187500.02, -187500.02, -187500.02, -187500.02, -187500.02, -187500.02, -35406.32, -29195.60, 0.00, 0.00, 0.00
111, -187500.02, -187500.02, -187500.02, -187500.02, -187500.02, -187500.02, -37279.78, -29020.34, 0.00, 0.00, 0.00
112, -187500.02, -187500.02, -187500.02, -187500.02, -187500.02, -187500.02, -36116.75, -29000.54, 0.00, 0.00, 0.00
113, -187500.02, -187500.02, -187500.02, -187500.02, -187500.02, -187500.02, -33942.73, -29196.16, 0.00, 0.00, 0.00
114, -187500.02, -187500.02, -187500.02, -187500.02, -187500.02, -187500.02, -34932.89, -29186.19, 0.00, 0.00, 0.00
115, -187500.02, -187500.02, -187500.02, -187500.02, -187500.02, -187500.02, -37132.26, -28988.63, 0.00, 0.00, 0.00
116, -187500.02, -187500.02, -187500.02, -187500.02, -187500.02, -187500.02, -36503.73, -28943.29, 0.02, 0.88, 0.46
117, -187500.02, -187500.02, -187500.02, -187500.02, -187500.02, -187500.02, -34148.48, -29147.03, 0.00, 0.00, 0.00
118, -187500.02, -187500.02, -187500.02, -187500.02, -187500.02, -187500.02, -34473.39, -29240.46, 0.00, 0.00, 0.00
119, -187500.02, -187500.02, -187500.02, -187500.02, -187500.02, -187500.02, -36800.18, -29048.13, 0.00, 0.00, 0.00
120, -187500.02, -187500.02, -187500.02, -187500.02, -187500.02, -187500.02, -36760.41, -28955.21, 0.00, 0.00, 0.00
121, -187500.02, -187500.02, -187500.02, -187500.02, -187500.02, -187500.02, -34423.23, -29121.30, 0.00, 0.00, 0.00
122, -187500.02, -187500.02, -187500.02, -187500.02, -187500.02, -187500.02, -34112.80, -29244.15, 0.00, 0.00, 0.00
123, -187500.02, -187500.02, -187500.02, -187500.02, -187500.02, -187500.02, -36441.63, -29091.22, 0.00, 0.00, 0.00
124, -187500.02, -187500.02, -187500.02, -187500.02, -187500.02, -187500.02, -36988.43, -28967.97, 0.00, 0.00, 0.00
125, -187500.02, -187500.02, -187500.02, -187500.02, -187500.02, -187500.02, -34795.45, -29078.14, 0.00, 0.00, 0.00
126, -187500.02, -187500.02, -187500.02, -187500.02, -187500.02, -187500.02, -33890.34, -29254.28, 0.03, 0.88, 0.46
127, -187500.02, -187500.02, -187500.02, -187500.02, -187500.02, -187500.02, -36098.78, -29141.02, 0.00, 0.00, 0.00
128, -187500.02, -187500.02, -187500.02, -187500.02, -187500.02, -187500.02, -37177.86, -28970.50, 0.00, 0.00, 0.00
129, -187500.02, -187500.02, -187500.02, -187500.02, -187500.02, -187500.02, -35253.75, -29029.91, 0.00, 0.00, 0.00
130, -187500.02, -187500.02, -187500.02, -187500.02, -187500.02, -187500.02, -33792.95, -29225.87, 0.00, 0.00, 0.00
131, -187500.02, -187500.02, -187500.02, -187500.02, -187500.02, -187500.02, -35660.75, -29151.46, 0.00, 0.00, 0.00
132, -187500.02, -187500.02, -187500.02, -187500.02, -187500.02, -187500.02, -37228.75, -28979.42, 0.00, 0.00, 0.00
133, -187500.02, -187500.02, -187500.02, -187500.02, -187500.02, -187500.02, -35710.87, -29019.07, 0.00, 0.00, 0.00
134, -187500.02, -187500.02, -187500.02, -187500.02, -187500.02, -187500.02, -33823.26, -29212.12, 0.00, 0.00, 0.00
135, -187500.02, -187500.02, -187500.02, -187500.02, -187500.02, -187500.02, -35212.24, -29178.59, 0.00, 0.00, 0.00
136, -187500.02, -187500.02, -187500.02, -187500.02, -187500.02, -187500.02, -37134.94, -28993.05, 0.03, 0.89, 0.45
137, -187500.02, -187500.02, -187500.02, -187500.02, -187500.02, -187500.02, -36103.65, -28990.68, 0.00, 0.00, 0.00
138, -187500.02, -187500.02, -187500.02, -187500.02, -187500.02, -187500.02, -33902.72, -29200.56, 0.00, 0.00, 0.00
139, -187500.02, -187500.02, -187500.02, -187500.02, -187500.02, -187500.02, -34740.64, -29225.22, 0.00, 0.00, 0.00
140, -187500.02, -187500.02, -187500.02, -187500.02, -187500.02, -187500.02, -36958.59, -28998.97, 0.00, 0.00, 0.00
141, -187500.02, -187500.02, -187500.02, -187500.02, -187500.02, -187500.02, -36485.55, -28921.79, 0.00, 0.00, 0.00
142, -187500.02, -187500.02, -187500.02, -187500.02, -187500.02, -187500.02, -34121.32, -29119.20, 0.00, 0.00, 0.00
143, -187500.02, -187500.02, -187500.02, -187500.02, -187500.02, -187500.02, -34341.24, -29231.77, 0.00, 0.00, 0.00
144, -187500.02, -187500.02, -187500.02, -187500.02, -187500.02, -187500.02, -36709.32, -29042.78, 0.00, 0.00, 0.00
145, -187500.02, -187500.02, -187500.02, -187500.02, -187500.02, -187500.02, -36825.04, -28936.28, 0.00, 0.00, 0.00
146, -187500.02, -187500.02, -187500.02, -187500.02, -187500.02, -187500.02, -34498.84, -29087.15, 0.03, 0.89, 0.46
147, -187500.02, -187500.02, -187500.02, -187500.02, -187500.02, -187500.02, -34058.38, -29228.95, 0.00, 0.00, 0.00
148, -187500.02, -187500.02, -187500.02, -187500.02, -187500.02, -187500.02, -36391.75, -29090.24, 0.00, 0.00, 0.00
149, -187500.02, -187500.02, -187500.02, -187500.02, -187500.02, -187500.02, -37062.72, -28969.07, 0.00, 0.00, 0.00
150, -187500.02, -187500.02, -187500.02, -187500.02, -187500.02, -187500.02, -34890.54, -29076.29, 0.00, 0.00, 0.00
151, -187500.02, -187500.02, -187500.02, -187500.02, -187500.02, -187500.02, -33843.20, -29246.52, 0.00, 0.00, 0.00
152, -187500.02, -187500.02, -187500.02, -187500.02, -187500.02, -187500.02, -35961.90, -29131.50, 0.00, 0.00, 0.00
153, -187500.02, -187500.02, -187500.02, -187500.02, -187500.02, -187500.02, -37166.32, -28973.13, 0.00, 0.00, 0.00
154, -187500.02, -187500.02, -187500.02, -187500.02, -187500.02, -187500.02, -35318.44, -29048.71, 0.00, 0.00, 0.00
155, -187500.02, -187500.02, -187500.02, -187500.02, -187500.02, -187500.02, -33764.59, -29233.55, 0.00, 0.00, 0.00
156, -187500.02, -187500.02, -187500.02, -187500.02, -187500.02, -187500.02, -35552.41, -29165.34, 0.04, 0.89, 0.45
157, -187500.02, -187500.02, -187500.02, -187500.02, -187500.02, -187500.02, -37213.17, -28987.28, 0.00, 0.00, 0.00
158, -187500.02, -187500.02, -187500.02, -187500.02, -187500.02, -187500.02, -35783.69, -29008.65, 0.00, 0.00, 0.00
159, -187500.02, -187500.02, -187500.02, -187500.02, -187500.02, -187500.02, -33806.63, -29210.76, 0.00, 0.00, 0.00
160, -187500.02, -187500.02, -187500.02, -187500.02, -187500.02, -187500.02, -35106.43, -29180.51, 0.00, 0.00, 0.00
161, -187500.02, -187500.02, -187500.02, -187500.02, -187500.02, -187500.02, -37152.15, -28972.13, 0.00, 0.00, 0.00
162, -187500.02, -187500.02, -187500.02, -187500.02, -187500.02, -187500.02, -36226.95, -28958.45, 0.00, 0.00, 0.00
163, -187500.02, -187500.02, -187500.02, -187500.02, -187500.02, -187500.02, -33995.62, -29170.30, 0.00, 0.00, 0.00
164, -187500.02, -187500.02, -187500.02, -187500.02, -187500.02, -187500.02, -34702.73, -29231.30, 0.00, 0.00, 0.00
165, -187500.02, -187500.02, -187500.02, -187500.02, -187500.02, -187500.02, -36953.60, -29038.51, 0.00, 0.00, 0.00
166, -187500.02, -187500.02, -187500.02, -187500.02, -187500.02, -187500.02, -36571.18, -28965.13, 0.04, 0.88, 0.46
167, -187500.02, -187500.02, -187500.02, -187500.02, -187500.02, -187500.02, -34200.71, -29144.80, 0.00, 0.00, 0.00
168, -187500.02, -187500.02, -187500.02, -187500.02, -187500.02, -187500.02, -34286.59, -29247.46, 0.00, 0.00, 0.00
169, -187500.02, -187500.02, -187500.02, -187500.02, -187500.02, -187500.02, -36653.29, -29087.49, 0.00, 0.00, 0.00
170, -187500.02, -187500.02, -187500.02, -187500.02, -187500.02, -187500.02, -36859.68, -28964.80, 0.00, 0.00, 0.00
171, -187500.02, -187500.02, -187500.02, -187500.02, -187500.02, -187500.02, -34550.03, -29111.38, 0.00, 0.00, 0.00
172, -187500.02, -187500.02, -187500.02, -187500.02, -187500.02, -187500.02, -34011.62, -29259.08, 0.00, 0.00, 0.00
173, -187500.02, -187500.02, -187500.02, -187500.02, -187500.02, -187500.02, -36307.55, -29114.96, 0.00, 0.00, 0.00
174, -187500.02, -187500.02, -187500.02, -187500.02, -187500.02, -187500.02, -37088.05, -28959.79, 0.00, 0.00, 0.00
175, -187500.02, -187500.02, -187500.02, -187500.02, -187500.02, -187500.02, -34982.67, -29062.12, 0.00, 0.00, 0.00
176, -187500.02, -187500.02, -187500.02, -187500.02, -187500.02, -187500.02, -33813.74, -29249.85, 0.03, 0.88, 0.46
177, -187500.02, -187500.02, -187500.02, -187500.02, -187500.02, -187500.02, -35863.84, -29137.67, 0.00, 0.00, 0.00
178, -187500.02, -187500.02, -187500.02, -187500.02, -187500.02, -187500.02, -37174.46, -28978.16, 0.00, 0.00, 0.00
179, -187500.02, -187500.02, -187500.02, -187500.02, -187500.02, -187500.02, -35421.41, -29019.52, 0.00, 0.00, 0.00
180, -187500.02, -187500.02, -187500.02, -187500.02, -187500.02, -187500.02, -33739.62, -29222.80, 0.00, 0.00, 0.00
181, -187500.02, -187500.02, -187500.02, -187500.02, -187500.02, -187500.02, -35418.11, -29179.64, 0.00, 0.00, 0.00
182, -187500.02, -187500.02, -187500.02, -187500.02, -187500.02, -187500.02, -37176.58, -29001.99, 0.00, 0.00, 0.00
183, -187500.02, -187500.02, -187500.02, -187500.02, -187500.02, -187500.02, -35841.45, -29012.43, 0.00, 0.00, 0.00
184, -187500.02, -187500.02, -187500.02, -187500.02, -187500.02, -187500.02, -33800.98, -29195.89, 0.00, 0.00, 0.00
185, -187500.02, -187500.02, -187500.02, -187500.02, -187500.02, -187500.02, -34950.44, -29207.40, 0.00, 0.00, 0.00
186, -187500.02, -187500.02, -187500.02, -187500.02, -187500.02, -187500.02, -37019.81, -29028.10, 0.03, 0.88, 0.46
187, -187500.02, -187500.02, -187500.02, -187500.02, -187500.02, -187500.02, -36246.62, -28983.17, 0.00, 0.00, 0.00
188, -187500.02, -187500.02, -187500.02, -187500.02, -187500.02, -187500.02, -33974.43, -29171.06, 0.00, 0.00, 0.00
189, -187500.02, -187500.02, -187500.02, -187500.02, -187500.02, -187500.02, -34530.92, -29226.13, 0.00, 0.00, 0.00
190, -187500.02, -187500.02, -187500.02, -187500.02, -187500.02, -187500.02, -36822.20, -29036.12, 0.00, 0.00, 0.00
191, -187500.02, -187500.02, -187500.02, -187500.02, -187500.02, -187500.02, -36583.86, -28954.07, 0.00, 0.00, 0.00
192, -187500.02, -187500.02, -187500.02, -187500.02, -187500.02, -187500.02, -34218.08, -29124.03, 0.00, 0.00, 0.00
193, -187500.02, -187500.02, -187500.02, -187500.02, -187500.02, -187500.02, -34151.92, -29237.78, 0.00, 0.00, 0.00
194, -187500.02, -187500.02, -187500.02, -187500.02, -187500.02, -187500.02, -36512.16, -29083.24, 0.00, 0.00, 0.00
195, -187500.02, -187500.02, -187500.02, -187500.02, -187500.02, -187500.02, -36877.98, -28954.54, 0.00, 0.00, 0.00
196, -187500.02, -187500.02, -187500.02, -187500.02, -187500.02, -187500.02, -34576.05, -29089.61, 0.03, 0.89, 0.46
197, -187500.02, -187500.02, -187500.02, -187500.02, -187500.02, -187500.02, -33851.67, -29248.91, 0.00, 0.00, 0.00
198, -187500.02, -187500.02, -187500.02, -187500.02, -187500.02, -187500.02, -36123.19, -29129.11, 0.00, 0.00, 0.00
199, -187500.02, -187500.02, -187500.02, -187500.02, -187500.02, -187500.02, -37018.04, -28995.96, 0.00, 0.00, 0.00
200, -187500.02, -187500.02, -187500.02, -187500.02, -187500.02, -187500.02, -34950.73, -29090.88, 0.00, 0.00, 0.00
201, -187500.02, -187500.02, -187500.02, -187500.02, -187500.02, -187500.02, -33629.09, -29277.72, 0.00, 0.00, 0.00
202, -187500.02, -187500.02, -187500.02, -187500.02, -187500.02, -187500.02, -35628.61, -29187.22, 0.00, 0.00, 0.00
203, -187500.02, -187500.02, -187500.02, -187500.02, -187500.02, -187500.02, -37049.33, -29007.58, 0.00, 0.00, 0.00
204, -187500.02, -187500.02, -187500.02, -187500.02, -187500.02, -187500.02, -35349.64, -29050.43, 0.00, 0.00, 0.00
205, -187500.02, -187500.02, -187500.02, -187500.02, -187500.02, -187500.02, -33567.49, -29247.59, 0.00, 0.00, 0.00
206, -187500.02, -187500.02, -187500.02, -187500.02, -187500.02, -187500.02, -35179.03, -29190.08, 0.03, 0.89, 0.45
207, -187500.02, -187500.02, -187500.02, -187500.02, -187500.02, -187500.02, -37023.03, -29003.96, 0.00, 0.00, 0.00
208, -187500.02, -187500.02, -187500.02, -187500.02, -187500.02, -187500.02, -35806.84, -29002.10, 0.00, 0.00, 0.00
209, -187500.02, -187500.02, -187500.02, -187500.02, -187500.02, -187500.02, -33713.07, -29186.93, 0.00, 0.00, 0.00
210, -187500.02, -187500.02, -187500.02, -187500.02, -187500.02, -187500.02, -34789.04, -29206.04, 0.00, 0.00, 0.00
211, -187500.02, -187500.02, -187500.02, -187500.02, -187500.02, -187500.02, -36918.40, -29022.13, 0.00, 0.00, 0.00
212, -187500.02, -187500.02, -187500.02, -187500.02, -187500.02, -187500.02, -36213.09, -29003.71, 0.00, 0.00, 0.00
213, -187500.02, -187500.02, -187500.02, -187500.02, -187500.02, -187500.02, -33915.06, -29182.23, 0.00, 0.00, 0.00
214, -187500.02, -187500.02, -187500.02, -187500.02, -187500.02, -187500.02, -34363.82, -29219.56, 0.00, 0.00, 0.00
215, -187500.02, -187500.02, -187500.02, -187500.02, -187500.02, -187500.02, -36688.27, -29047.66, 0.02, 0.89, 0.46
216, -187500.02, -187500.02, -187500.02, -187500.02, -187500.02, -187500.02, -36579.72, -28970.23, 0.00, 0.00, 0.00
217, -187500.02, -187500.02, -187500.02, -187500.02, -187500.02, -187500.02, -34235.38, -29118.55, 0.00, 0.00, 0.00
218, -187500.02, -187500.02, -187500.02, -187500.02, -187500.02, -187500.02, -34037.26, -29231.59, 0.00, 0.00, 0.00
219, -187500.02, -187500.02, -187500.02, -187500.02, -187500.02, -187500.02, -36378.78, -29079.44, 0.00, 0.00, 0.00
220, -187500.02, -187500.02, -187500.02, -187500.02, -187500.02, -187500.02, -36825.04, -28964.13, 0.00, 0.00, 0.00
221, -187500.02, -187500.02, -187500.02, -187500.02, -187500.02, -187500.02, -34589.46, -29087.31, 0.00, 0.00, 0.00
222, -187500.02, -187500.02, -187500.02, -187500.02, -187500.02, -187500.02, -33748.03, -29249.65, 0.00, 0.00, 0.00
223, -187500.02, -187500.02, -187500.02, -187500.02, -187500.02, -187500.02, -35947.37, -29118.87, 0.00, 0.00, 0.00
224, -187500.02, -187500.02, -187500.02, -187500.02, -187500.02, -187500.02, -36948.08, -28986.43, 0.00, 0.00, 0.00
225, -187500.02, -187500.02, -187500.02, -187500.02, -187500.02, -187500.02, -35003.25, -29069.43, 0.02, 0.88, 0.46
226, -187500.02, -187500.02, -187500.02, -187500.02, -187500.02, -187500.02, -33609.82, -29243.81, 0.00, 0.00, 0.00
227, -187500.02, -187500.02, -187500.02, -187500.02, -187500.02, -187500.02, -35526.69, -29161.13, 0.00, 0.00, 0.00
228, -187500.02, -187500.02, -187500.02, -187500.02, -187500.02, -187500.02, -37031.81, -28992.25, 0.00, 0.00, 0.00
229, -187500.02, -187500.02, -187500.02, -187500.02, -187500.02, -187500.02, -35456.28, -29029.86, 0.00, 0.00, 0.00
230, -187500.02, -187500.02, -187500.02, -187500.02, -187500.02, -187500.02, -33614.54, -29239.01, 0.00, 0.00, 0.00
231, -187500.02, -187500.02, -187500.02, -187500.02, -187500.02, -187500.02, -35091.16, -29196.90, 0.00, 0.00, 0.00
232, -187500.02, -187500.02, -187500.02, -187500.02, -187500.02, -187500.02, -36984.11, -29000.63, 0.00, 0.00, 0.00
233, -187500.02, -187500.02, -187500.02, -187500.02, -187500.02, -187500.02, -35890.15, -28991.13, 0.00, 0.00, 0.00
234, -187500.02, -187500.02, -187500.02, -187500.02, -187500.02, -187500.02, -33727.86, -29185.16, 0.00, 0.00, 0.00
235, -187500.02, -187500.02, -187500.02, -187500.02, -187500.02, -187500.02, -34624.80, -29214.04, 0.03, 0.88, 0.46
236, -187500.02, -187500.02, -187500.02, -187500.02, -187500.02, -187500.02, -36804.52, -29030.82, 0.00, 0.00, 0.00
237, -187500.02, -187500.02, -187500.02, -187500.02, -187500.02, -187500.02, -36247.73, -28974.88, 0.00, 0.00, 0.00
238, -187500.02, -187500.02, -187500.02, -187500.02, -187500.02, -187500.02, -33913.25, -29162.99, 0.00, 0.00, 0.00
239, -187500.02, -187500.02, -187500.02, -187500.02, -187500.02, -187500.02, -34211.85, -29262.59, 0.00, 0.00, 0.00
240, -187500.02, -187500.02, -187500.02, -187500.02, -187500.02, -187500.02, -36566.29, -29086.82, 0.00, 0.00, 0.00
241, -187500.02, -187500.02, -187500.02, -187500.02, -187500.02, -187500.02, -36589.56, -28960.17, 0.00, 0.00, 0.00
242, -187500.02, -187500.02, -187500.02, -187500.02, -187500.02, -187500.02, -34279.04, -29116.99, 0.00, 0.00, 0.00
243, -187500.02, -187500.02, -187500.02, -187500.02, -187500.02, -187500.02, -33936.25, -29255.06, 0.00, 0.00, 0.00
244, -187500.02, -187500.02, -187500.02, -187500.02, -187500.02, -187500.02, -36285.80, -29100.85, 0.00, 0.00, 0.00
245, -187500.02, -187500.02, -187500.02, -187500.02, -187500.02, -187500.02, -36858.96, -28973.25, 0.02, 0.88, 0.46
246, -187500.02, -187500.02, -187500.02, -187500.02, -187500.02, -187500.02, -34685.93, -29093.95, 0.00, 0.00, 0.00
247, -187500.02, -187500.02, -187500.02, -187500.02, -187500.02, -187500.02, -33731.87, -29263.71, 0.00, 0.00, 0.00
248, -187500.02, -187500.02, -187500.02, -187500.02, -187500.02, -187500.02, -35882.15, -29140.33, 0.00, 0.00, 0.00
249, -187500.02, -187500.02, -187500.02, -187500.02, -187500.02, -187500.02, -36992.18, -28971.06, 0.00, 0.00, 0.00
250, -187500.02, -187500.02, -187500.02, -187500.02, -187500.02, -187500.02, -35093.13, -29047.77, 0.00, 0.00, 0.00
251, -187500.02, -187500.02, -187500.02, -187500.02, -187500.02, -187500.02, -33591.79, -29254.57, 0.00, 0.00, 0.00
252, -187500.02, -187500.02, -187500.02, -187500.02, -187500.02, -187500.02, -35419.11, -29177.79, 0.00, 0.00, 0.00
253, -187500.02, -187500.02, -187500.02, -187500.02, -187500.02, -187500.02, -37021.55, -28997.45, 0.00, 0.00, 0.00
254, -187500.02, -187500.02, -187500.02, -187500.02, -187500.02, -187500.02, -35553.96, -29035.52, 0.00, 0.00, 0.00
255, -187500.02, -187500.02, -187500.02, -187500.02, -187500.02, -187500.02, -33627.06, -29226.04, 0.02, 0.88, 0.46
0, -187500.02, -187500.02, -187500.02, -187500.02, -187500.02, -187500.02, -34967.09, -29209.79, 0.00, 0.00, 0.00
1, -187500.02, -187500.02, -187500.02, -187500.02, -187500.02, -187500.02, -36926.51, -29017.32, 0.00, 0.00, 0.00
2, -187500.02, -187500.02, -187500.02, -187500.02, -187500.02, -187500.02, -35939.64, -29002.64, 0.00, 0.00, 0.00
3, -187500.02, -187500.02, -187500.02, -187500.02, -187500.02, -187500.02, -33712.57, -29196.12, 0.00, 0.00, 0.00
4, -187500.02, -187500.02, -187500.02, -187500.02, -187500.02, -187500.02, -34512.48, -29228.53, 0.00, 0.00, 0.00
5, -187500.02, -187500.02, -187500.02, -187500.02, -187500.02, -187500.02, -36725.61, -29049.20, 0.00, 0.00, 0.00
6, -187500.02, -187500.02, -187500.02, -187500.02, -187500.02, -187500.02, -36272.25, -28990.03, 0.00, 0.00, 0.00
7, -187500.02, -187500.02, -187500.02, -187500.02, -187500.02, -187500.02, -33950.85, -29176.56, 0.00, 0.00, 0.00
8, -187500.02, -187500.02, -187500.02, -187500.02, -187500.02, -187500.02, -34139.43, -29264.02, 0.00, 0.00, 0.00
9, -187500.02, -187500.02, -187500.02, -187500.02, -187500.02, -187500.02, -36471.92, -29080.40, 0.02, 0.88, 0.47
10, -187500.02, -187500.02, -187500.02, -187500.02, -187500.02, -187500.02, -36590.03, -28961.22, 0.00, 0.00, 0.00
11, -187500.02, -187500.02, -187500.02, -187500.02, -187500.02, -187500.02, -34279.73, -29117.88, 0.00, 0.00, 0.00
12, -187500.02, -187500.02, -187500.02, -187500.02, -187500.02, -187500.02, -33807.06, -29259.88, 0.00, 0.00, 0.00
13, -187500.02, -187500.02, -187500.02, -187500.02, -187500.02, -187500.02, -36081.61, -29122.13, 0.00, 0.00, 0.00
14, -187500.02, -187500.02, -187500.02, -187500.02, -187500.02, -187500.02, -36762.25, -29000.56, 0.00, 0.00, 0.00
15, -187500.02, -187500.02, -187500.02, -187500.02, -187500.02, -187500.02, -34641.27, -29100.61, 0.00, 0.00, 0.00
16, -187500.02, -187500.02, -187500.02, -187500.02, -187500.02, -187500.02, -33572.95, -29272.42, 0.00, 0.00, 0.00
17, -187500.02, -187500.02, -187500.02, -187500.02, -187500.02, -187500.02, -35694.30, -29148.02, 0.00, 0.00, 0.00
18, -187500.02, -187500.02, -187500.02, -187500.02, -187500.02, -187500.02, -36902.24, -28991.60, 0.00, 0.00, 0.00
19, -187500.02, -187500.02, -187500.02, -187500.02, -187500.02, -187500.02, -35072.41, -29064.46, 0.03, 0.87, 0.47
20, -187500.02, -187500.02, -187500.02, -187500.02, -187500.02, -187500.02, -33460.61, -29260.82, 0.00, 0.00, 0.00
21, -187500.02, -187500.02, -187500.02, -187500.02, -187500.02, -187500.02, -35194.03, -29195.42, 0.00, 0.00, 0.00
22, -187500.02, -187500.02, -187500.02, -187500.02, -187500.02, -187500.02, -36862.23, -29006.73, 0.00, 0.00, 0.00
23, -187500.02, -187500.02, -187500.02, -187500.02, -187500.02, -187500.02, -35466.68, -29030.49, 0.00, 0.00, 0.00
24, -187500.02, -187500.02, -187500.02, -187500.02, -187500.02, -187500.02, -33459.33, -29227.68, 0.00, 0.00, 0.00
25, -187500.02, -187500.02, -187500.02, -187500.02, -187500.02, -187500.02, -34722.07, -29222.92, 0.00, 0.00, 0.00
26, -187500.02, -187500.02, -187500.02, -187500.02, -187500.02, -187500.02, -36785.63, -29028.34, 0.00, 0.00, 0.00
27, -187500.02, -187500.02, -187500.02, -187500.02, -187500.02, -187500.02, -35917.04, -29012.12, 0.00, 0.00, 0.00
28, -187500.02, -187500.02, -187500.02, -187500.02, -187500.02, -187500.02, -33642.53, -29219.32, 0.00, 0.00, 0.00
29, -187500.02, -187500.02, -187500.02, -187500.02, -187500.02, -187500.02, -34272.53, -29246.56, 0.04, 0.88, 0.46
30, -187500.02, -187500.02, -187500.02, -187500.02, -187500.02, -187500.02, -36538.20, -29043.88, 0.00, 0.00, 0.00
31, -187500.02, -187500.02, -187500.02, -187500.02, -187500.02, -187500.02, -36211.16, -28988.47, 0.00, 0.00, 0.00
32, -187500.02, -187500.02, -187500.02, -187500.02, -187500.02, -187500.02, -33855.56, -29167.33, 0.00, 0.00, 0.00
33, -187500.02, -187500.02, -187500.02, -187500.02, -187500.02, -187500.02, -33882.61, -29263.48, 0.00, 0.00, 0.00
34, -187500.02, -187500.02, -187500.02, -187500.02, -187500.02, -187500.02, -36252.81, -29080.91, 0.00, 0.00, 0.00
35, -187500.02, -187500.02, -187500.02, -187500.02, -187500.02, -187500.02, -36483.63, -28973.18, 0.00, 0.00, 0.00
36, -187500.02, -187500.02, -187500.02, -187500.02, -187500.02, -187500.02, -34158.74, -29132.97, 0.00, 0.00, 0.00
37, -187500.02, -187500.02, -187500.02, -187500.02, -187500.02, -187500.02, -33524.69, -29296.34, 0.00, 0.00, 0.00
38, -187500.02, -187500.02, -187500.02, -187500.02, -187500.02, -187500.02, -35817.86, -29159.55, 0.00, 0.00, 0.00
39, -187500.02, -187500.02, -187500.02, -187500.02, -187500.02, -187500.02, -36635.56, -28992.58, 0.04, 0.88, 0.46
40, -187500.02, -187500.02, -187500.02, -187500.02, -187500.02, -187500.02, -34544.33, -29090.08, 0.00, 0.00, 0.00
41, -187500.02, -187500.02, -187500.02, -187500.02, -187500.02, -187500.02, -33358.95, -29275.64, 0.00, 0.00, 0.00
42, -187500.02, -187500.02, -187500.02, -187500.02, -187500.02, -187500.02, -35379.88, -29170.39, 0.00, 0.00, 0.00
43, -187500.02, -187500.02, -187500.02, -187500.02, -187500.02, -187500.02, -36718.86, -29001.43, 0.00, 0.00, 0.00
44, -187500.02, -187500.02, -187500.02, -187500.02, -187500.02, -187500.02, -34990.71, -29051.19, 0.00, 0.00, 0.00
45, -187500.02, -187500.02, -187500.02, -187500.02, -187500.02, -187500.02, -33284.07, -29258.25, 0.00, 0.00, 0.00
46, -187500.02, -187500.02, -187500.02, -187500.02, -187500.02, -187500.02, -34921.65, -29214.62, 0.00, 0.00, 0.00
47, -187500.02, -187500.02, -187500.02, -187500.02, -187500.02, -187500.02, -36672.08, -29033.33, 0.00, 0.00, 0.00
48, -187500.02, -187500.02, -187500.02, -187500.02, -187500.02, -187500.02, -35368.10, -29057.58, 0.03, 0.88, 0.46
49, -187500.02, -187500.02, -187500.02, -187500.02, -187500.02, -187500.02, -33284.43, -29232.82, 0.00, 0.00, 0.00
50, -187500.02, -187500.02, -187500.02, -187500.02, -187500.02, -187500.02, -34393.61, -29242.00, 0.00, 0.00, 0.00
51, -187500.02, -187500.02, -187500.02, -187500.02, -187500.02, -187500.02, -36502.95, -29064.44, 0.00, 0.00, 0.00
52, -187500.02, -187500.02, -187500.02, -187500.02, -187500.02, -187500.02, -35745.85, -29007.87, 0.00, 0.00, 0.00
53, -187500.02, -187500.02, -187500.02, -187500.02, -187500.02, -187500.02, -33484.84, -29197.84, 0.00, 0.00, 0.00
54, -187500.02, -187500.02, -187500.02, -187500.02, -187500.02, -187500.02, -34049.60, -29267.51, 0.00, 0.00, 0.00
55, -187500.02, -187500.02, -187500.02, -187500.02, -187500.02, -187500.02, -36350.44, -29092.07, 0.00, 0.00, 0.00
56, -187500.02, -187500.02, -187500.02, -187500.02, -187500.02, -187500.02, -36140.13, -29012.92, 0.00, 0.00, 0.00
57, -187500.02, -187500.02, -187500.02, -187500.02, -187500.02, -187500.02, -33772.95, -29195.11, 0.00, 0.00, 0.00
58, -187500.02, -187500.02, -187500.02, -187500.02, -187500.02, -187500.02, -33663.94, -29292.99, 0.02, 0.89, 0.46
59, -187500.02, -187500.02, -187500.02, -187500.02, -187500.02, -187500.02, -36019.99, -29106.11, 0.00, 0.00, 0.00
60, -187500.02, -187500.02, -187500.02, -187500.02, -187500.02, -187500.02, -36370.89, -28990.46, 0.00, 0.00, 0.00
61, -187500.02, -187500.02, -187500.02, -187500.02, -187500.02, -187500.02, -34113.84, -29114.29, 0.00, 0.00, 0.00
62, -187500.02, -187500.02, -187500.02, -187500.02, -187500.02, -187500.02, -33383.04, -29277.70, 0.00, 0.00, 0.00
63, -187500.02, -187500.02, -187500.02, -187500.02, -187500.02, -187500.02, -35617.86, -29160.46, 0.00, 0.00, 0.00
64, -187500.02, -187500.02, -187500.02, -187500.02, -187500.02, -187500.02, -36532.27, -29028.12, 0.00, 0.00, 0.00
65, -187500.02, -187500.02, -187500.02, -187500.02, -187500.02, -187500.02, -34515.23, -29111.63, 0.00, 0.00, 0.00
66, -187500.02, -187500.02, -187500.02, -187500.02, -187500.02, -187500.02, -33233.78, -29277.43, 0.00, 0.00, 0.00
67, -187500.02, -187500.02, -187500.02, -187500.02, -187500.02, -187500.02, -35217.45, -29208.52, 0.00, 0.00, 0.00
68, -187500.02, -187500.02, -187500.02, -187500.02, -187500.02, -187500.02, -36668.24, -29012.47, 0.02, 0.88, 0.46
69, -187500.02, -187500.02, -187500.02, -187500.02, -187500.02, -187500.02, -35022.70, -29030.85, 0.00, 0.00, 0.00
70, -187500.02, -187500.02, -187500.02, -187500.02, -187500.02, -187500.02, -33228.32, -29251.50, 0.00, 0.00, 0.00
71, -187500.02, -187500.02, -187500.02, -187500.02, -187500.02, -187500.02, -34761.79, -29232.21, 0.00, 0.00, 0.00
72, -187500.02, -187500.02, -187500.02, -187500.02, -187500.02, -187500.02, -36623.45, -29037.64, 0.00, 0.00, 0.00
73, -187500.02, -187500.02, -187500.02, -187500.02, -187500.02, -187500.02, -35486.61, -29032.19, 0.00, 0.00, 0.00
74, -187500.02, -187500.02, -187500.02, -187500.02, -187500.02, -187500.02, -33380.34, -29218.94, 0.00, 0.00, 0.00
75, -187500.02, -187500.02, -187500.02, -187500.02, -187500.02, -187500.02, -34419.90, -29233.00, 0.00, 0.00, 0.00
76, -187500.02, -187500.02, -187500.02, -187500.02, -187500.02, -187500.02, -36580.17, -29031.79, 0.00, 0.00, 0.00
77, -187500.02, -187500.02, -187500.02, -187500.02, -187500.02, -187500.02, -35942.66, -29004.09, 0.00, 0.00, 0.00
78, -187500.02, -187500.02, -187500.02, -187500.02, -187500.02, -187500.02, -33629.18, -29197.46, 0.02, 0.89, 0.46
79, -187500.02, -187500.02, -187500.02, -187500.02, -187500.02, -187500.02, -33992.58, -29271.98, 0.00, 0.00, 0.00
80, -187500.02, -187500.02, -187500.02, -187500.02, -187500.02, -187500.02, -36329.65, -29085.94, 0.00, 0.00, 0.00
81, -187500.02, -187500.02, -187500.02, -187500.02, -187500.02, -187500.02, -36270.87, -29000.36, 0.00, 0.00, 0.00
82, -187500.02, -187500.02, -187500.02, -187500.02, -187500.02, -187500.02, -33940.92, -29156.33, 0.00, 0.00, 0.00
83, -187500.02, -187500.02, -187500.02, -187500.02, -187500.02, -187500.02, -33699.43, -29283.22, 0.00, 0.00, 0.00
84, -187500.02, -187500.02, -187500.02, -187500.02, -187500.02, -187500.02, -36038.57, -29134.60, 0.00, 0.00, 0.00
85, -187500.02, -187500.02, -187500.02, -187500.02, -187500.02, -187500.02, -36536.20, -29002.42, 0.00, 0.00, 0.00
86, -187500.02, -187500.02, -187500.02, -187500.02, -187500.02, -187500.02, -34360.26, -29118.47, 0.00, 0.00, 0.00
87, -187500.02, -187500.02, -187500.02, -187500.02, -187500.02, -187500.02, -33476.25, -29280.09, 0.00, 0.00, 0.00
88, -187500.02, -187500.02, -187500.02, -187500.02, -187500.02, -187500.02, -35637.73, -29145.09, 0.03, 0.89, 0.47
89, -187500.02, -187500.02, -187500.02, -187500.02, -187500.02, -187500.02, -36697.70, -28993.10, 0.00, 0.00, 0.00
90, -187500.02, -187500.02, -187500.02, -187500.02, -187500.02, -187500.02, -34766.84, -29086.50, 0.00, 0.00, 0.00
91, -187500.02, -187500.02, -187500.02, -187500.02, -187500.02, -187500.02, -33323.68, -29290.98, 0.00, 0.00, 0.00
92, -187500.02, -187500.02, -187500.02, -187500.02, -187500.02, -187500.02, -35210.97, -29211.99, 0.00, 0.00, 0.00
93, -187500.02, -187500.02, -187500.02, -187500.02, -187500.02, -187500.02, -36750.98, -29022.62, 0.00, 0.00, 0.00
94, -187500.02, -187500.02, -187500.02, -187500.02, -187500.02, -187500.02, -35226.37, -29055.26, 0.00, 0.00, 0.00
95, -187500.02, -187500.02, -187500.02, -187500.02, -187500.02, -187500.02, -33343.30, -29246.72, 0.00, 0.00, 0.00
96, -187500.02, -187500.02, -187500.02, -187500.02, -187500.02, -187500.02, -34768.65, -29233.58, 0.00, 0.00, 0.00
97, -187500.02, -187500.02, -187500.02, -187500.02, -187500.02, -187500.02, -36683.14, -29054.79, 0.00, 0.00, 0.00
98, -187500.02, -187500.02, -187500.02, -187500.02, -187500.02, -187500.02, -35620.90, -29012.68, 0.03, 0.88, 0.48
99, -187500.02, -187500.02, -187500.02, -187500.02, -187500.02, -187500.02, -33438.66, -29202.84, 0.00, 0.00, 0.00
100, -187500.02, -187500.02, -187500.02, -187500.02, -187500.02, -187500.02, -34300.16, -29242.32, 0.00, 0.00, 0.00
101, -187500.02, -187500.02, -187500.02, -187500.02, -187500.02, -187500.02, -36523.15, -29062.94, 0.00, 0.00, 0.00
102, -187500.02, -187500.02, -187500.02, -187500.02, -187500.02, -187500.02, -36000.37, -29029.69, 0.00, 0.00, 0.00
103, -187500.02, -187500.02, -187500.02, -187500.02, -187500.02, -187500.02, -33639.46, -29194.98, 0.00, 0.00, 0.00
104, -187500.02, -187500.02, -187500.02, -187500.02, -187500.02, -187500.02, -33879.99, -29269.77, 0.00, 0.00, 0.00
105, -187500.02, -187500.02, -187500.02, -187500.02, -187500.02, -187500.02, -36256.27, -29087.98, 0.00, 0.00, 0.00
106, -187500.02, -187500.02, -187500.02, -187500.02, -187500.02, -187500.02, -36329.09, -29010.46, 0.00, 0.00, 0.00
107, -187500.02, -187500.02, -187500.02, -187500.02, -187500.02, -187500.02, -33995.01, -29158.19, 0.00, 0.00, 0.00
108, -187500.02, -187500.02, -187500.02, -187500.02, -187500.02, -187500.02, -33573.28, -29277.65, 0.03, 0.89, 0.47
109, -187500.02, -187500.02, -187500.02, -187500.02, -187500.02, -187500.02, -35882.57, -29113.57, 0.00, 0.00, 0.00
110, -187500.02, -187500.02, -187500.02, -187500.02, -187500.02, -187500.02, -36496.84, -28991.69, 0.00, 0.00, 0.00
111, -187500.02, -187500.02, -187500.02, -187500.02, -187500.02, -187500.02, -34335.77, -29097.03, 0.00, 0.00, 0.00
112, -187500.02, -187500.02, -187500.02, -187500.02, -187500.02, -187500.02, -33346.72, -29270.30, 0.00, 0.00, 0.00
113, -187500.02, -187500.02, -187500.02, -187500.02, -187500.02, -187500.02, -35490.30, -29160.20, 0.00, 0.00, 0.00
114, -187500.02, -187500.02, -187500.02, -187500.02, -187500.02, -187500.02, -36635.40, -29010.64, 0.00, 0.00, 0.00
115, -187500.02, -187500.02, -187500.02, -187500.02, -187500.02, -187500.02, -34779.18, -29070.61, 0.00, 0.00, 0.00
116, -187500.02, -187500.02, -187500.02, -187500.02, -187500.02, -187500.02, -33227.99, -29273.68, 0.00, 0.00, 0.00
117, -187500.02, -187500.02, -187500.02, -187500.02, -187500.02, -187500.02, -35013.43, -29212.77, 0.00, 0.00, 0.00
118, -187500.02, -187500.02, -187500.02, -187500.02, -187500.02, -187500.02, -36621.92, -29030.15, 0.03, 0.88, 0.47
119, -187500.02, -187500.02, -187500.02, -187500.02, -187500.02, -187500.02, -35144.03, -29055.19, 0.00, 0.00, 0.00
120, -187500.02, -187500.02, -187500.02, -187500.02, -187500.02, -187500.02, -33175.71, -29246.03, 0.00, 0.00, 0.00
121, -187500.02, -187500.02, -187500.02, -187500.02, -187500.02, -187500.02, -34511.00, -29249.22, 0.00, 0.00, 0.00
122, -187500.02, -187500.02, -187500.02, -187500.02, -187500.02, -187500.02, -36510.39, -29053.20, 0.00, 0.00, 0.00
123, -187500.02, -187500.02, -187500.02, -187500.02, -187500.02, -187500.02, -35548.30, -29014.78, 0.00, 0.00, 0.00
124, -187500.02, -187500.02, -187500.02, -187500.02, -187500.02, -187500.02, -33301.21, -29219.81, 0.00, 0.00, 0.00
125, -187500.02, -187500.02, -187500.02, -187500.02, -187500.02, -187500.02, -34049.73, -29271.53, 0.00, 0.00, 0.00
126, -187500.02, -187500.02, -187500.02, -187500.02, -187500.02, -187500.02, -36303.32, -29077.65, 0.00, 0.00, 0.00
127, -187500.02, -187500.02, -187500.02, -187500.02, -187500.02, -187500.02, -35898.04, -29016.16, 0.00, 0.00, 0.00
128, -187500.02, -187500.02, -187500.02, -187500.02, -187500.02, -187500.02, -33519.32, -29187.35, 0.03, 0.88, 0.46
129, -187500.02, -187500.02, -187500.02, -187500.02, -187500.02, -187500.02, -33646.80, -29288.36, 0.00, 0.00, 0.00
130, -187500.02, -187500.02, -187500.02, -187500.02, -187500.02, -187500.02, -36014.31, -29116.83, 0.00, 0.00, 0.00
131, -187500.02, -187500.02, -187500.02, -187500.02, -187500.02, -187500.02, -36184.86, -29004.32, 0.00, 0.00, 0.00
132, -187500.02, -187500.02, -187500.02, -187500.02, -187500.02, -187500.02, -33872.23, -29140.04, 0.00, 0.00, 0.00
133, -187500.02, -187500.02, -187500.02, -187500.02, -187500.02, -187500.02, -33328.59, -29284.32, 0.00, 0.00, 0.00
134, -187500.02, -187500.02, -187500.02, -187500.02, -187500.02, -187500.02, -35638.22, -29143.19, 0.00, 0.00, 0.00
135, -187500.02, -187500.02, -187500.02, -187500.02, -187500.02, -187500.02, -36380.17, -29008.85, 0.00, 0.00, 0.00
136, -187500.02, -187500.02, -187500.02, -187500.02, -187500.02, -187500.02, -34260.44, -29133.29, 0.00, 0.00, 0.00
137, -187500.02, -187500.02, -187500.02, -187500.02, -187500.02, -187500.02, -33117.82, -29299.60, 0.03, 0.88, 0.46
138, -187500.02, -187500.02, -187500.02, -187500.02, -187500.02, -187500.02, -35195.14, -29173.43, 0.00, 0.00, 0.00
139, -187500.02, -187500.02, -187500.02, -187500.02, -187500.02, -187500.02, -36440.83, -29013.32, 0.00, 0.00, 0.00
140, -187500.02, -187500.02, -187500.02, -187500.02, -187500.02, -187500.02, -34677.72, -29077.14, 0.00, 0.00, 0.00
141, -187500.02, -187500.02, -187500.02, -187500.02, -187500.02, -187500.02, -33075.39, -29273.25, 0.00, 0.00, 0.00
142, -187500.02, -187500.02, -187500.02, -187500.02, -187500.02, -187500.02, -34780.68, -29213.04, 0.00, 0.00, 0.00
143, -187500.02, -187500.02, -187500.02, -187500.02, -187500.02, -187500.02, -36522.55, -29028.57, 0.00, 0.00, 0.00
144, -187500.02, -187500.02, -187500.02, -187500.02, -187500.02, -187500.02, -35145.14, -29042.40, 0.00, 0.00, 0.00
145, -187500.02, -187500.02, -187500.02, -187500.02, -187500.02, -187500.02, -33112.39, -29243.59, 0.00, 0.00, 0.00
146, -187500.02, -187500.02, -187500.02, -187500.02, -187500.02, -187500.02, -34328.41, -29257.74, 0.00, 0.00, 0.00
147, -187500.02, -187500.02, -187500.02, -187500.02, -187500.02, -187500.02, -36362.78, -29065.94, 0.04, 0.89, 0.46
148, -187500.02, -187500.02, -187500.02, -187500.02, -187500.02, -187500.02, -35496.54, -29017.86, 0.00, 0.00, 0.00
149, -187500.02, -187500.02, -187500.02, -187500.02, -187500.02, -187500.02, -33230.20, -29195.65, 0.00, 0.00, 0.00
150, -187500.02, -187500.02, -187500.02, -187500.02, -187500.02, -187500.02, -33849.23, -29243.81, 0.00, 0.00, 0.00
151, -187500.02, -187500.02, -187500.02, -187500.02, -187500.02, -187500.02, -36124.35, -29073.23, 0.00, 0.00, 0.00
152, -187500.02, -187500.02, -187500.02, -187500.02, -187500.02, -187500.02, -35843.19, -29008.07, 0.00, 0.00, 0.00
153, -187500.02, -187500.02, -187500.02, -187500.02, -187500.02, -187500.02, -33493.98, -29178.23, 0.00, 0.00, 0.00
154, -187500.02, -187500.02, -187500.02, -187500.02, -187500.02, -187500.02, -33488.79, -29286.91, 0.00, 0.00, 0.00
155, -187500.02, -187500.02, -187500.02, -187500.02, -187500.02, -187500.02, -35874.14, -29116.03, 0.00, 0.00, 0.00
156, -187500.02, -187500.02, -187500.02, -187500.02, -187500.02, -187500.02, -36158.71, -29003.44, 0.00, 0.00, 0.00
157, -187500.02, -187500.02, -187500.02, -187500.02, -187500.02, -187500.02, -33881.22, -29137.89, 0.04, 0.88, 0.46
158, -187500.02, -187500.02, -187500.02, -187500.02, -187500.02, -187500.02, -33237.13, -29285.12, 0.00, 0.00, 0.00
159, -187500.02, -187500.02, -187500.02, -187500.02, -187500.02, -187500.02, -35521.70, -29136.08, 0.00, 0.00, 0.00
160, -187500.02, -187500.02, -187500.02, -187500.02, -187500.02, -187500.02, -36372.07, -28980.49, 0.00, 0.00, 0.00
161, -187500.02, -187500.02, -187500.02, -187500.02, -187500.02, -187500.02, -34299.02, -29090.88, 0.00, 0.00, 0.00
162, -187500.02, -187500.02, -187500.02, -187500.02, -187500.02, -187500.02, -33040.64, -29283.29, 0.00, 0.00, 0.00
163, -187500.02, -187500.02, -187500.02, -187500.02, -187500.02, -187500.02, -35063.27, -29191.51, 0.00, 0.00, 0.00
164, -187500.02, -187500.02, -187500.02, -187500.02, -187500.02, -187500.02, -36423.22, -29022.82, 0.00, 0.00, 0.00
165, -187500.02, -187500.02, -187500.02, -187500.02, -187500.02, -187500.02, -34722.07, -29065.09, 0.00, 0.00, 0.00
166, -187500.02, -187500.02, -187500.02, -187500.02, -187500.02, -187500.02, -33000.27, -29272.02, 0.00, 0.00, 0.00
167, -187500.02, -187500.02, -187500.02, -187500.02, -187500.02, -187500.02, -34621.80, -29215.74, 0.03, 0.88, 0.47
168, -187500.02, -187500.02, -187500.02, -187500.02, -187500.02, -187500.02, -36399.30, -29022.13, 0.00, 0.00, 0.00
169, -187500.02, -187500.02, -187500.02, -187500.02, -187500.02, -187500.02, -35129.09, -29046.40, 0.00, 0.00, 0.00
170, -187500.02, -187500.02, -187500.02, -187500.02, -187500.02, -187500.02, -33043.79, -29242.25, 0.00, 0.00, 0.00
171, -187500.02, -187500.02, -187500.02, -187500.02, -187500.02, -187500.02, -34130.09, -29261.81, 0.00, 0.00, 0.00
172, -187500.02, -187500.02, -187500.02, -187500.02, -187500.02, -187500.02, -36243.02, -29080.42, 0.00, 0.00, 0.00
173, -187500.02, -187500.02, -187500.02, -187500.02, -187500.02, -187500.02, -35532.54, -29039.47, 0.00, 0.00, 0.00
174, -187500.02, -187500.02, -187500.02, -187500.02, -187500.02, -187500.02, -33213.93, -29234.47, 0.00, 0.00, 0.00
175, -187500.02, -187500.02, -187500.02, -187500.02, -187500.02, -187500.02, -33710.14, -29297.75, 0.00, 0.00, 0.00
176, -187500.02, -187500.02, -187500.02, -187500.02, -187500.02, -187500.02, -36036.46, -29106.15, 0.00, 0.00, 0.00
177, -187500.02, -187500.02, -187500.02, -187500.02, -187500.02, -187500.02, -35881.93, -29013.68, 0.03, 0.87, 0.47
178, -187500.02, -187500.02, -187500.02, -187500.02, -187500.02, -187500.02, -33565.59, -29147.32, 0.00, 0.00, 0.00
179, -187500.02, -187500.02, -187500.02, -187500.02, -187500.02, -187500.02, -33397.46, -29267.91, 0.00, 0.00, 0.00
180, -187500.02, -187500.02, -187500.02, -187500.02, -187500.02, -187500.02, -35729.55, -29110.17, 0.00, 0.00, 0.00
181, -187500.02, -187500.02, -187500.02, -187500.02, -187500.02, -187500.02, -36143.15, -28994.86, 0.00, 0.00, 0.00
182, -187500.02, -187500.02, -187500.02, -187500.02, -187500.02, -187500.02, -33909.96, -29121.37, 0.00, 0.00, 0.00
183, -187500.02, -187500.02, -187500.02, -187500.02, -187500.02, -187500.02, -33138.74, -29279.13, 0.00, 0.00, 0.00
184, -187500.02, -187500.02, -187500.02, -187500.02, -187500.02, -187500.02, -35354.89, -29162.01, 0.00, 0.00, 0.00
185, -187500.02, -187500.02, -187500.02, -187500.02, -187500.02, -187500.02, -36283.12, -29032.72, 0.00, 0.00, 0.00
186, -187500.02, -187500.02, -187500.02, -187500.02, -187500.02, -187500.02, -34276.24, -29103.22, 0.00, 0.00, 0.00
187, -187500.02, -187500.02, -187500.02, -187500.02, -187500.02, -187500.02, -32929.13, -29254.68, 0.03, 0.88, 0.47
188, -187500.02, -187500.02, -187500.02, -187500.02, -187500.02, -187500.02, -34878.44, -29180.16, 0.00, 0.00, 0.00
189, -187500.02, -187500.02, -187500.02, -187500.02, -187500.02, -187500.02, -36360.01, -29009.39, 0.00, 0.00, 0.00
190, -187500.02, -187500.02, -187500.02, -187500.02, -187500.02, -187500.02, -34751.95, -29054.16, 0.00, 0.00, 0.00
191, -187500.02, -187500.02, -187500.02, -187500.02, -187500.02, -187500.02, -32908.72, -29269.43, 0.00, 0.00, 0.00
192, -187500.02, -187500.02, -187500.02, -187500.02, -187500.02, -187500.02, -34417.26, -29223.18, 0.00, 0.00, 0.00
193, -187500.02, -187500.02, -187500.02, -187500.02, -187500.02, -187500.02, -36313.56, -29009.23, 0.00, 0.00, 0.00
194, -187500.02, -187500.02, -187500.02, -187500.02, -187500.02, -187500.02, -35163.43, -29011.96, 0.00, 0.00, 0.00
195, -187500.02, -187500.02, -187500.02, -187500.02, -187500.02, -187500.02, -33022.55, -29221.20, 0.00, 0.00, 0.00
196, -187500.02, -187500.02, -187500.02, -187500.02, -187500.02, -187500.02, -33981.49, -29242.21, 0.00, 0.00, 0.00
197, -187500.02, -187500.02, -187500.02, -187500.02, -187500.02, -187500.02, -36145.63, -29063.21, 0.03, 0.87, 0.47
198, -187500.02, -187500.02, -187500.02, -187500.02, -187500.02, -187500.02, -35542.78, -29004.88, 0.00, 0.00, 0.00
199, -187500.02, -187500.02, -187500.02, -187500.02, -187500.02, -187500.02, -33191.58, -29191.36, 0.00, 0.00, 0.00
200, -187500.02, -187500.02, -187500.02, -187500.02, -187500.02, -187500.02, -33511.99, -29291.54, 0.00, 0.00, 0.00
201, -187500.02, -187500.02, -187500.02, -187500.02, -187500.02, -187500.02, -35857.00, -29105.08, 0.00, 0.00, 0.00
202, -187500.02, -187500.02, -187500.02, -187500.02, -187500.02, -187500.02, -35818.98, -29005.84, 0.00, 0.00, 0.00
203, -187500.02, -187500.02, -187500.02, -187500.02, -187500.02, -187500.02, -33488.19, -29141.18, 0.00, 0.00, 0.00
204, -187500.02, -187500.02, -187500.02, -187500.02, -187500.02, -187500.02, -33184.98, -29284.07, 0.00, 0.00, 0.00
205, -187500.02, -187500.02, -187500.02, -187500.02, -187500.02, -187500.02, -35535.61, -29129.82, 0.00, 0.00, 0.00
206, -187500.02, -187500.02, -187500.02, -187500.02, -187500.02, -187500.02, -36070.60, -29001.86, 0.00, 0.00, 0.00
207, -187500.02, -187500.02, -187500.02, -187500.02, -187500.02, -187500.02, -33869.42, -29113.41, 0.03, 0.88, 0.46
208, -187500.02, -187500.02, -187500.02, -187500.02, -187500.02, -187500.02, -32947.30, -29275.35, 0.00, 0.00, 0.00
209, -187500.02, -187500.02, -187500.02, -187500.02, -187500.02, -187500.02, -35153.84, -29164.04, 0.00, 0.00, 0.00
210, -187500.02, -187500.02, -187500.02, -187500.02, -187500.02, -187500.02, -36239.35, -29015.74, 0.00, 0.00, 0.00
211, -187500.02, -187500.02, -187500.02, -187500.02, -187500.02, -187500.02, -34289.50, -29078.70, 0.00, 0.00, 0.00
212, -187500.02, -187500.02, -187500.02, -187500.02, -187500.02, -187500.02, -32832.21, -29276.04, 0.00, 0.00, 0.00
213, -187500.02, -187500.02, -187500.02, -187500.02, -187500.02, -187500.02, -34721.85, -29217.73, 0.00, 0.00, 0.00
214, -187500.02, -187500.02, -187500.02, -187500.02, -187500.02, -187500.02, -36282.33, -29049.60, 0.00, 0.00, 0.00
215, -187500.02, -187500.02, -187500.02, -187500.02, -187500.02, -187500.02, -34749.43, -29073.03, 0.00, 0.00, 0.00
216, -187500.02, -187500.02, -187500.02, -187500.02, -187500.02, -187500.02, -32855.92, -29260.51, 0.00, 0.00, 0.00
217, -187500.02, -187500.02, -187500.02, -187500.02, -187500.02, -187500.02, -34260.39, -29246.32, 0.04, 0.89, 0.47
218, -187500.02, -187500.02, -187500.02, -187500.02, -187500.02, -187500.02, -36219.57, -29074.57, 0.00, 0.00, 0.00
219, -187500.02, -187500.02, -187500.02, -187500.02, -187500.02, -187500.02, -35166.40, -29066.01, 0.00, 0.00, 0.00
220, -187500.02, -187500.02, -187500.02, -187500.02, -187500.02, -187500.02, -32968.33, -29252.22, 0.00, 0.00, 0.00
221, -187500.02, -187500.02, -187500.02, -187500.02, -187500.02, -187500.02, -33815.98, -29281.79, 0.00, 0.00, 0.00
222, -187500.02, -187500.02, -187500.02, -187500.02, -187500.02, -187500.02, -36042.07, -29097.90, 0.00, 0.00, 0.00
223, -187500.02, -187500.02, -187500.02, -187500.02, -187500.02, -187500.02, -35554.34, -29038.69, 0.00, 0.00, 0.00
224, -187500.02, -187500.02, -187500.02, -187500.02, -187500.02, -187500.02, -33215.85, -29196.27, 0.00, 0.00, 0.00
225, -187500.02, -187500.02, -187500.02, -187500.02, -187500.02, -187500.02, -33410.87, -29288.88, 0.00, 0.00, 0.00
226, -187500.02, -187500.02, -187500.02, -187500.02, -187500.02, -187500.02, -35742.67, -29132.84, 0.03, 0.89, 0.47
227, -187500.02, -187500.02, -187500.02, -187500.02, -187500.02, -187500.02, -35838.07, -29030.98, 0.00, 0.00, 0.00
228, -187500.02, -187500.02, -187500.02, -187500.02, -187500.02, -187500.02, -33507.34, -29172.20, 0.00, 0.00, 0.00
229, -187500.02, -187500.02, -187500.02, -187500.02, -187500.02, -187500.02, -33071.35, -29316.12, 0.00, 0.00, 0.00
230, -187500.02, -187500.02, -187500.02, -187500.02, -187500.02, -187500.02, -35398.73, -29171.33, 0.00, 0.00, 0.00
231, -187500.02, -187500.02, -187500.02, -187500.02, -187500.02, -187500.02, -36050.59, -29054.12, 0.00, 0.00, 0.00
232, -187500.02, -187500.02, -187500.02, -187500.02, -187500.02, -187500.02, -33920.07, -29169.81, 0.00, 0.00, 0.00
233, -187500.02, -187500.02, -187500.02, -187500.02, -187500.02, -187500.02, -32885.85, -29326.40, 0.00, 0.00, 0.00
234, -187500.02, -187500.02, -187500.02, -187500.02, -187500.02, -187500.02, -35014.88, -29208.28, 0.00, 0.00, 0.00
235, -187500.02, -187500.02, -187500.02, -187500.02, -187500.02, -187500.02, -36186.22, -29032.19, 0.00, 0.00, 0.00
236, -187500.02, -187500.02, -187500.02, -187500.02, -187500.02, -187500.02, -34340.73, -29092.94, 0.03, 0.89, 0.47
237, -187500.02, -187500.02, -187500.02, -187500.02, -187500.02, -187500.02, -32772.68, -29299.60, 0.00, 0.00, 0.00
238, -187500.02, -187500.02, -187500.02, -187500.02, -187500.02, -187500.02, -34544.93, -29239.72, 0.00, 0.00, 0.00
239, -187500.02, -187500.02, -187500.02, -187500.02, -187500.02, -187500.02, -36176.12, -29057.31, 0.00, 0.00, 0.00
240, -187500.02, -187500.02, -187500.02, -187500.02, -187500.02, -187500.02, -34727.82, -29073.20, 0.00, 0.00, 0.00
241, -187500.02, -187500.02, -187500.02, -187500.02, -187500.02, -187500.02, -32761.80, -29284.23, 0.00, 0.00, 0.00
242, -187500.02, -187500.02, -187500.02, -187500.02, -187500.02, -187500.02, -34077.45, -29274.68, 0.00, 0.00, 0.00
243, -187500.02, -187500.02, -187500.02, -187500.02, -187500.02, -187500.02, -36089.75, -29062.94, 0.00, 0.00, 0.00
244, -187500.02, -187500.02, -187500.02, -187500.02, -187500.02, -187500.02, -35161.42, -29034.54, 0.00, 0.00, 0.00
245, -187500.02, -187500.02, -187500.02, -187500.02, -187500.02, -187500.02, -32923.87, -29239.46, 0.00, 0.00, 0.00
246, -187500.02, -187500.02, -187500.02, -187500.02, -187500.02, -187500.02, -33648.88, -29274.03, 0.04, 0.88, 0.47
247, -187500.02, -187500.02, -187500.02, -187500.02, -187500.02, -187500.02, -35890.57, -29084.45, 0.00, 0.00, 0.00
248, -187500.02, -187500.02, -187500.02, -187500.02, -187500.02, -187500.02, -35514.84, -29017.57, 0.00, 0.00, 0.00
249, -187500.02, -187500.02, -187500.02, -187500.02, -187500.02, -187500.02, -33159.13, -29191.62, 0.00, 0.00, 0.00
250, -187500.02, -187500.02, -187500.02, -187500.02, -187500.02, -187500.02, -33233.46, -29302.22, 0.00, 0.00, 0.00
251, -187500.02, -187500.02, -187500.02, -187500.02, -187500.02, -187500.02, -35587.13, -29122.42, 0.00, 0.00, 0.00
252, -187500.02, -187500.02, -187500.02, -187500.02, -187500.02, -187500.02, -35785.32, -29014.82, 0.00, 0.00, 0.00
253, -187500.02, -187500.02, -187500.02, -187500.02, -187500.02, -187500.02, -33487.49, -29156.87, 0.00, 0.00, 0.00
254, -187500.02, -187500.02, -187500.02, -187500.02, -187500.02, -187500.02, -32909.50, -29313.78, 0.00, 0.00, 0.00
255, -187500.02, -187500.02, -187500.02, -187500.02, -187500.02, -187500.02, -35222.55, -29187.00, 0.00, 0.00, 0.00
0, -187500.02, -187500.02, -187500.02, -187500.02, -187500.02, -187500.02, -36014.87, -29034.74, 0.04, 0.88, 0.47
1, -187500.02, -187500.02, -187500.02, -187500.02, -187500.02, -187500.02, -33896.48, -29113.57, 0.00, 0.00, 0.00
2, -187500.02, -187500.02, -187500.02, -187500.02, -187500.02, -187500.02, -32712.80, -29290.33, 0.00, 0.00, 0.00
3, -187500.02, -187500.02, -187500.02, -187500.02, -187500.02, -187500.02, -34766.21, -29198.96, 0.00, 0.00, 0.00
4, -187500.02, -187500.02, -187500.02, -187500.02, -187500.02, -187500.02, -36063.93, -29039.77, 0.00, 0.00, 0.00
5, -187500.02, -187500.02, -187500.02, -187500.02, -187500.02, -187500.02, -34324.99, -29099.00, 0.00, 0.00, 0.00
6, -187500.02, -187500.02, -187500.02, -187500.02, -187500.02, -187500.02, -32674.72, -29282.01, 0.00, 0.00, 0.00
7, -187500.02, -187500.02, -187500.02, -187500.02, -187500.02, -187500.02, -34368.53, -29220.32, 0.00, 0.00, 0.00
8, -187500.02, -187500.02, -187500.02, -187500.02, -187500.02, -187500.02, -36090.18, -29057.94, 0.00, 0.00, 0.00
9, -187500.02, -187500.02, -187500.02, -187500.02, -187500.02, -187500.02, -34745.00, -29068.55, 0.00, 0.00, 0.00
10, -187500.02, -187500.02, -187500.02, -187500.02, -187500.02, -187500.02, -32676.93, -29269.47, 0.04, 0.88, 0.47
11, -187500.02, -187500.02, -187500.02, -187500.02, -187500.02, -187500.02, -33853.08, -29293.39, 0.00, 0.00, 0.00
12, -187500.02, -187500.02, -187500.02, -187500.02, -187500.02, -187500.02, -35921.78, -29094.59, 0.00, 0.00, 0.00
13, -187500.02, -187500.02, -187500.02, -187500.02, -187500.02, -187500.02, -35100.44, -29061.09, 0.00, 0.00, 0.00
14, -187500.02, -187500.02, -187500.02, -187500.02, -187500.02, -187500.02, -32834.04, -29231.21, 0.00, 0.00, 0.00
15, -187500.02, -187500.02, -187500.02, -187500.02, -187500.02, -187500.02, -33437.36, -29272.22, 0.00, 0.00, 0.00
16, -187500.02, -187500.02, -187500.02, -187500.02, -187500.02, -187500.02, -35724.48, -29089.50, 0.00, 0.00, 0.00
17, -187500.02, -187500.02, -187500.02, -187500.02, -187500.02, -187500.02, -35456.75, -29025.30, 0.00, 0.00, 0.00
18, -187500.02, -187500.02, -187500.02, -187500.02, -187500.02, -187500.02, -33109.21, -29192.03, 0.00, 0.00, 0.00
19, -187500.02, -187500.02, -187500.02, -187500.02, -187500.02, -187500.02, -33052.17, -29313.57, 0.00, 0.00, 0.00
20, -187500.02, -187500.02, -187500.02, -187500.02, -187500.02, -187500.02, -35407.69, -29155.23, 0.03, 0.88, 0.47
21, -187500.02, -187500.02, -187500.02, -187500.02, -187500.02, -187500.02, -35742.29, -29043.32, 0.00, 0.00, 0.00
22, -187500.02, -187500.02, -187500.02, -187500.02, -187500.02, -187500.02, -33457.92, -29162.10, 0.00, 0.00, 0.00
23, -187500.02, -187500.02, -187500.02, -187500.02, -187500.02, -187500.02, -32738.46, -29302.22, 0.00, 0.00, 0.00
24, -187500.02, -187500.02, -187500.02, -187500.02, -187500.02, -187500.02, -35011.08, -29177.94, 0.00, 0.00, 0.00
25, -187500.02, -187500.02, -187500.02, -187500.02, -187500.02, -187500.02, -35879.87, -29040.03, 0.00, 0.00, 0.00
26, -187500.02, -187500.02, -187500.02, -187500.02, -187500.02, -187500.02, -33838.44, -29132.12, 0.00, 0.00, 0.00
27, -187500.02, -187500.02, -187500.02, -187500.02, -187500.02, -187500.02, -32580.93, -29303.67, 0.00, 0.00, 0.00
28, -187500.02, -187500.02, -187500.02, -187500.02, -187500.02, -187500.02, -34585.28, -29211.87, 0.00, 0.00, 0.00
29, -187500.02, -187500.02, -187500.02, -187500.02, -187500.02, -187500.02, -35950.30, -29057.36, 0.00, 0.00, 0.00
30, -187500.02, -187500.02, -187500.02, -187500.02, -187500.02, -187500.02, -34271.70, -29108.41, 0.04, 0.87, 0.46
31, -187500.02, -187500.02, -187500.02, -187500.02, -187500.02, -187500.02, -32508.15, -29302.67, 0.00, 0.00, 0.00
32, -187500.02, -187500.02, -187500.02, -187500.02, -187500.02, -187500.02, -34119.58, -29244.31, 0.00, 0.00, 0.00
33, -187500.02, -187500.02, -187500.02, -187500.02, -187500.02, -187500.02, -35966.88, -29046.31, 0.00, 0.00, 0.00
34, -187500.02, -187500.02, -187500.02, -187500.02, -187500.02, -187500.02, -34747.24, -29052.53, 0.00, 0.00, 0.00
35, -187500.02, -187500.02, -187500.02, -187500.02, -187500.02, -187500.02, -32615.20, -29271.11, 0.00, 0.00, 0.00
36, -187500.02, -187500.02, -187500.02, -187500.02, -187500.02, -187500.02, -33662.89, -29280.99, 0.00, 0.00, 0.00
37, -187500.02, -187500.02, -187500.02, -187500.02, -187500.02, -187500.02, -35770.23, -29089.77, 0.00, 0.00, 0.00
38, -187500.02, -187500.02, -187500.02, -187500.02, -187500.02, -187500.02, -35073.62, -29040.50, 0.00, 0.00, 0.00
39, -187500.02, -187500.02, -187500.02, -187500.02, -187500.02, -187500.02, -32784.42, -29212.25, 0.00, 0.00, 0.00
40, -187500.02, -187500.02, -187500.02, -187500.02, -187500.02, -187500.02, -33253.54, -29285.05, 0.03, 0.88, 0.46
41, -187500.02, -187500.02, -187500.02, -187500.02, -187500.02, -187500.02, -35556.91, -29115.11, 0.00, 0.00, 0.00
42, -187500.02, -187500.02, -187500.02, -187500.02, -187500.02, -187500.02, -35408.05, -29025.86, 0.00, 0.00, 0.00
43, -187500.02, -187500.02, -187500.02, -187500.02, -187500.02, -187500.02, -33039.27, -29196.05, 0.00, 0.00, 0.00
44, -187500.02, -187500.02, -187500.02, -187500.02, -187500.02, -187500.02, -32811.42, -29340.96, 0.00, 0.00, 0.00
45, -187500.02, -187500.02, -187500.02, -187500.02, -187500.02, -187500.02, -35190.56, -29186.17, 0.00, 0.00, 0.00
46, -187500.02, -187500.02, -187500.02, -187500.02, -187500.02, -187500.02, -35625.42, -29042.85, 0.00, 0.00, 0.00
47, -187500.02, -187500.02, -187500.02, -187500.02, -187500.02, -187500.02, -33359.51, -29144.42, 0.00, 0.00, 0.00
48, -187500.02, -187500.02, -187500.02, -187500.02, -187500.02, -187500.02, -32544.94, -29318.83, 0.00, 0.00, 0.00
49, -187500.02, -187500.02, -187500.02, -187500.02, -187500.02, -187500.02, -34806.71, -29180.02, 0.00, 0.00, 0.00
50, -187500.02, -187500.02, -187500.02, -187500.02, -187500.02, -187500.02, -35825.93, -29021.88, 0.03, 0.88, 0.46
51, -187500.02, -187500.02, -187500.02, -187500.02, -187500.02, -187500.02, -33829.59, -29110.93, 0.00, 0.00, 0.00
52, -187500.02, -187500.02, -187500.02, -187500.02, -187500.02, -187500.02, -32406.38, -29313.98, 0.00, 0.00, 0.00
53, -187500.02, -187500.02, -187500.02, -187500.02, -187500.02, -187500.02, -34345.93, -29225.93, 0.00, 0.00, 0.00
54, -187500.02, -187500.02, -187500.02, -187500.02, -187500.02, -187500.02, -35828.37, -29053.49, 0.00, 0.00, 0.00
55, -187500.02, -187500.02, -187500.02, -187500.02, -187500.02, -187500.02, -34219.89, -29096.14, 0.00, 0.00, 0.00
56, -187500.02, -187500.02, -187500.02, -187500.02, -187500.02, -187500.02, -32367.72, -29293.23, 0.00, 0.00, 0.00
57, -187500.02, -187500.02, -187500.02, -187500.02, -187500.02, -187500.02, -33881.46, -29250.70, 0.00, 0.00, 0.00
58, -187500.02, -187500.02, -187500.02, -187500.02, -187500.02, -187500.02, -35789.81, -29077.88, 0.00, 0.00, 0.00
59, -187500.02, -187500.02, -187500.02, -187500.02, -187500.02, -187500.02, -34670.41, -29074.23, 0.02, 0.88, 0.46
60, -187500.02, -187500.02, -187500.02, -187500.02, -187500.02, -187500.02, -32471.09, -29275.78, 0.00, 0.00, 0.00
61, -187500.02, -187500.02, -187500.02, -187500.02, -187500.02, -187500.02, -33399.12, -29306.47, 0.00, 0.00, 0.00
62, -187500.02, -187500.02, -187500.02, -187500.02, -187500.02, -187500.02, -35592.47, -29127.50, 0.00, 0.00, 0.00
63, -187500.02, -187500.02, -187500.02, -187500.02, -187500.02, -187500.02, -35001.85, -29061.47, 0.00, 0.00, 0.00
64, -187500.02, -187500.02, -187500.02, -187500.02, -187500.02, -187500.02, -32634.57, -29229.31, 0.00, 0.00, 0.00
65, -187500.02, -187500.02, -187500.02, -187500.02, -187500.02, -187500.02, -32947.27, -29313.91, 0.00, 0.00, 0.00
66, -187500.02, -187500.02, -187500.02, -187500.02, -187500.02, -187500.02, -35338.84, -29139.39, 0.00, 0.00, 0.00
67, -187500.02, -187500.02, -187500.02, -187500.02, -187500.02, -187500.02, -35356.82, -29052.51, 0.00, 0.00, 0.00
68, -187500.02, -187500.02, -187500.02, -187500.02, -187500.02, -187500.02, -33006.46, -29180.18, 0.00, 0.00, 0.00
69, -187500.02, -187500.02, -187500.02, -187500.02, -187500.02, -187500.02, -32626.97, -29334.00, 0.02, 0.88, 0.46
70, -187500.02, -187500.02, -187500.02, -187500.02, -187500.02, -187500.02, -34985.51, -29168.06, 0.00, 0.00, 0.00
71, -187500.02, -187500.02, -187500.02, -187500.02, -187500.02, -187500.02, -35555.50, -29037.20, 0.00, 0.00, 0.00
72, -187500.02, -187500.02, -187500.02, -187500.02, -187500.02, -187500.02, -33366.68, -29141.62, 0.00, 0.00, 0.00
73, -187500.02, -187500.02, -187500.02, -187500.02, -187500.02, -187500.02, -32375.92, -29317.60, 0.00, 0.00, 0.00
74, -187500.02, -187500.02, -187500.02, -187500.02, -187500.02, -187500.02, -34583.33, -29215.90, 0.00, 0.00, 0.00
75, -187500.02, -187500.02, -187500.02, -187500.02, -187500.02, -187500.02, -35724.34, -29033.08, 0.00, 0.00, 0.00
76, -187500.02, -187500.02, -187500.02, -187500.02, -187500.02, -187500.02, -33811.75, -29095.98, 0.00, 0.00, 0.00
77, -187500.02, -187500.02, -187500.02, -187500.02, -187500.02, -187500.02, -32270.26, -29310.82, 0.00, 0.00, 0.00
78, -187500.02, -187500.02, -187500.02, -187500.02, -187500.02, -187500.02, -34136.12, -29246.50, 0.00, 0.00, 0.00
79, -187500.02, -187500.02, -187500.02, -187500.02, -187500.02, -187500.02, -35741.76, -29064.69, 0.02, 0.88, 0.46
80, -187500.02, -187500.02, -187500.02, -187500.02, -187500.02, -187500.02, -34241.02, -29084.65, 0.00, 0.00, 0.00
81, -187500.02, -187500.02, -187500.02, -187500.02, -187500.02, -187500.02, -32278.06, -29285.72, 0.00, 0.00, 0.00
82, -187500.02, -187500.02, -187500.02, -187500.02, -187500.02, -187500.02, -33676.25, -29282.17, 0.00, 0.00, 0.00
83, -187500.02, -187500.02, -187500.02, -187500.02, -187500.02, -187500.02, -35675.73, -29072.51, 0.00, 0.00, 0.00
84, -187500.02, -187500.02, -187500.02, -187500.02, -187500.02, -187500.02, -34683.96, -29048.59, 0.00, 0.00, 0.00
85, -187500.02, -187500.02, -187500.02, -187500.02, -187500.02, -187500.02, -32451.58, -29251.03, 0.00, 0.00, 0.00
86, -187500.02, -187500.02, -187500.02, -187500.02, -187500.02, -187500.02, -33271.09, -29291.33, 0.00, 0.00, 0.00
87, -187500.02, -187500.02, -187500.02, -187500.02, -187500.02, -187500.02, -35527.40, -29085.79, 0.00, 0.00, 0.00
88, -187500.02, -187500.02, -187500.02, -187500.02, -187500.02, -187500.02, -35064.75, -29036.57, 0.00, 0.00, 0.00
89, -187500.02, -187500.02, -187500.02, -187500.02, -187500.02, -187500.02, -32698.86, -29221.13, 0.03, 0.87, 0.46
90, -187500.02, -187500.02, -187500.02, -187500.02, -187500.02, -187500.02, -32866.23, -29322.07, 0.00, 0.00, 0.00
91, -187500.02, -187500.02, -187500.02, -187500.02, -187500.02, -187500.02, -35250.84, -29126.15, 0.00, 0.00, 0.00
92, -187500.02, -187500.02, -187500.02, -187500.02, -187500.02, -187500.02, -35369.33, -29033.06, 0.00, 0.00, 0.00
93, -187500.02, -187500.02, -187500.02, -187500.02, -187500.02, -187500.02, -33017.44, -29190.62, 0.00, 0.00, 0.00
94, -187500.02, -187500.02, -187500.02, -187500.02, -187500.02, -187500.02, -32534.68, -29334.70, 0.00, 0.00, 0.00
95, -187500.02, -187500.02, -187500.02, -187500.02, -187500.02, -187500.02, -34903.54, -29178.88, 0.00, 0.00, 0.00
96, -187500.02, -187500.02, -187500.02, -187500.02, -187500.02, -187500.02, -35563.73, -29040.41, 0.00, 0.00, 0.00
97, -187500.02, -187500.02, -187500.02, -187500.02, -187500.02, -187500.02, -33408.91, -29144.97, 0.00, 0.00, 0.00
98, -187500.02, -187500.02, -187500.02, -187500.02, -187500.02, -187500.02, -32315.68, -29326.74, 0.00, 0.00, 0.00
99, -187500.02, -187500.02, -187500.02, -187500.02, -187500.02, -187500.02, -34449.80, -29227.07, 0.03, 0.87, 0.47
100, -187500.02, -187500.02, -187500.02, -187500.02, -187500.02, -187500.02, -35678.17, -29057.47, 0.00, 0.00, 0.00
101, -187500.02, -187500.02, -187500.02, -187500.02, -187500.02, -187500.02, -33865.30, -29119.25, 0.00, 0.00, 0.00
102, -187500.02, -187500.02, -187500.02, -187500.02, -187500.02, -187500.02, -32222.74, -29312.03, 0.00, 0.00, 0.00
103, -187500.02, -187500.02, -187500.02, -187500.02, -187500.02, -187500.02, -33997.56, -29258.48, 0.00, 0.00, 0.00
104, -187500.02, -187500.02, -187500.02, -187500.02, -187500.02, -187500.02, -35706.84, -29062.12, 0.00, 0.00, 0.00
105, -187500.02, -187500.02, -187500.02, -187500.02, -187500.02, -187500.02, -34299.22, -29074.08, 0.00, 0.00, 0.00
106, -187500.02, -187500.02, -187500.02, -187500.02, -187500.02, -187500.02, -32247.35, -29294.71, 0.00, 0.00, 0.00
107, -187500.02, -187500.02, -187500.02, -187500.02, -187500.02, -187500.02, -33520.84, -29292.88, 0.00, 0.00, 0.00
108, -187500.02, -187500.02, -187500.02, -187500.02, -187500.02, -187500.02, -35572.73, -29104.03, 0.00, 0.00, 0.00
109, -187500.02, -187500.02, -187500.02, -187500.02, -187500.02, -187500.02, -34660.54, -29071.04, 0.02, 0.87, 0.47
110, -187500.02, -187500.02, -187500.02, -187500.02, -187500.02, -187500.02, -32371.63, -29278.08, 0.00, 0.00, 0.00
111, -187500.02, -187500.02, -187500.02, -187500.02, -187500.02, -187500.02, -33040.50, -29327.19, 0.00, 0.00, 0.00
112, -187500.02, -187500.02, -187500.02, -187500.02, -187500.02, -187500.02, -35333.57, -29118.31, 0.00, 0.00, 0.00
113, -187500.02, -187500.02, -187500.02, -187500.02, -187500.02, -187500.02, -34984.03, -29044.91, 0.00, 0.00, 0.00
114, -187500.02, -187500.02, -187500.02, -187500.02, -187500.02, -187500.02, -32574.47, -29239.23, 0.00, 0.00, 0.00
115, -187500.02, -187500.02, -187500.02, -187500.02, -187500.02, -187500.02, -32622.97, -29341.98, 0.00, 0.00, 0.00
116, -187500.02, -187500.02, -187500.02, -187500.02, -187500.02, -187500.02, -35037.66, -29154.18, 0.00, 0.00, 0.00
117, -187500.02, -187500.02, -187500.02, -187500.02, -187500.02, -187500.02, -35283.34, -29047.32, 0.00, 0.00, 0.00
118, -187500.02, -187500.02, -187500.02, -187500.02, -187500.02, -187500.02, -32967.91, -29187.94, 0.00, 0.00, 0.00
119, -187500.02, -187500.02, -187500.02, -187500.02, -187500.02, -187500.02, -32297.13, -29359.15, 0.03, 0.87, 0.46
120, -187500.02, -187500.02, -187500.02, -187500.02, -187500.02, -187500.02, -34613.66, -29215.07, 0.00, 0.00, 0.00
121, -187500.02, -187500.02, -187500.02, -187500.02, -187500.02, -187500.02, -35440.75, -29074.19, 0.00, 0.00, 0.00
122, -187500.02, -187500.02, -187500.02, -187500.02, -187500.02, -187500.02, -33334.65, -29184.25, 0.00, 0.00, 0.00
123, -187500.02, -187500.02, -187500.02, -187500.02, -187500.02, -187500.02, -32120.26, -29347.55, 0.00, 0.00, 0.00
124, -187500.02, -187500.02, -187500.02, -187500.02, -187500.02, -187500.02, -34200.20, -29213.37, 0.00, 0.00, 0.00
125, -187500.02, -187500.02, -187500.02, -187500.02, -187500.02, -187500.02, -35563.55, -29043.95, 0.00, 0.00, 0.00
126, -187500.02, -187500.02, -187500.02, -187500.02, -187500.02, -187500.02, -33805.05, -29113.79, 0.00, 0.00, 0.00
127, -187500.02, -187500.02, -187500.02, -187500.02, -187500.02, -187500.02, -32070.51, -29330.81, 0.00, 0.00, 0.00
128, -187500.02, -187500.02, -187500.02, -187500.02, -187500.02, -187500.02, -33741.93, -29286.30, 0.00, 0.00, 0.00
129, -187500.02, -187500.02, -187500.02, -187500.02, -187500.02, -187500.02, -35510.15, -29090.44, 0.03, 0.88, 0.46
130, -187500.02, -187500.02, -187500.02, -187500.02, -187500.02, -187500.02, -34189.59, -29078.21, 0.00, 0.00, 0.00
131, -187500.02, -187500.02, -187500.02, -187500.02, -187500.02, -187500.02, -32075.00, -29287.02, 0.00, 0.00, 0.00
132, -187500.02, -187500.02, -187500.02, -187500.02, -187500.02, -187500.02, -33227.23, -29298.58, 0.00, 0.00, 0.00
133, -187500.02, -187500.02, -187500.02, -187500.02, -187500.02, -187500.02, -35363.12, -29109.82, 0.00, 0.00, 0.00
134, -187500.02, -187500.02, -187500.02, -187500.02, -187500.02, -187500.02, -34604.01, -29082.90, 0.00, 0.00, 0.00
135, -187500.02, -187500.02, -187500.02, -187500.02, -187500.02, -187500.02, -32293.40, -29273.01, 0.00, 0.00, 0.00
136, -187500.02, -187500.02, -187500.02, -187500.02, -187500.02, -187500.02, -32838.67, -29342.27, 0.00, 0.00, 0.00
137, -187500.02, -187500.02, -187500.02, -187500.02, -187500.02, -187500.02, -35182.96, -29154.61, 0.00, 0.00, 0.00
138, -187500.02, -187500.02, -187500.02, -187500.02, -187500.02, -187500.02, -34990.18, -29037.91, 0.00, 0.00, 0.00
139, -187500.02, -187500.02, -187500.02, -187500.02, -187500.02, -187500.02, -32596.40, -29209.66, 0.02, 0.89, 0.47
140, -187500.02, -187500.02, -187500.02, -187500.02, -187500.02, -187500.02, -32474.83, -29344.29, 0.00, 0.00, 0.00
141, -187500.02, -187500.02, -187500.02, -187500.02, -187500.02, -187500.02, -34884.70, -29165.20, 0.00, 0.00, 0.00
142, -187500.02, -187500.02, -187500.02, -187500.02, -187500.02, -187500.02, -35258.89, -29064.62, 0.00, 0.00, 0.00
143, -187500.02, -187500.02, -187500.02, -187500.02, -187500.02, -187500.02, -32986.30, -29193.90, 0.00, 0.00, 0.00
144, -187500.02, -187500.02, -187500.02, -187500.02, -187500.02, -187500.02, -32239.24, -29345.09, 0.00, 0.00, 0.00
145, -187500.02, -187500.02, -187500.02, -187500.02, -187500.02, -187500.02, -34503.25, -29210.31, 0.00, 0.00, 0.00
146, -187500.02, -187500.02, -187500.02, -187500.02, -187500.02, -187500.02, -35412.96, -29065.29, 0.00, 0.00, 0.00
147, -187500.02, -187500.02, -187500.02, -187500.02, -187500.02, -187500.02, -33411.81, -29147.81, 0.00, 0.00, 0.00
148, -187500.02, -187500.02, -187500.02, -187500.02, -187500.02, -187500.02, -32086.98, -29358.14, 0.02, 0.89, 0.47
149, -187500.02, -187500.02, -187500.02, -187500.02, -187500.02, -187500.02, -34091.50, -29253.22, 0.00, 0.00, 0.00
150, -187500.02, -187500.02, -187500.02, -187500.02, -187500.02, -187500.02, -35526.51, -29073.23, 0.00, 0.00, 0.00
151, -187500.02, -187500.02, -187500.02, -187500.02, -187500.02, -187500.02, -33878.38, -29099.49, 0.00, 0.00, 0.00
152, -187500.02, -187500.02, -187500.02, -187500.02, -187500.02, -187500.02, -32052.20, -29311.38, 0.00, 0.00, 0.00
153, -187500.02, -187500.02, -187500.02, -187500.02, -187500.02, -187500.02, -33643.49, -29278.82, 0.00, 0.00, 0.00
154, -187500.02, -187500.02, -187500.02, -187500.02, -187500.02, -187500.02, -35498.41, -29070.92, 0.00, 0.00, 0.00
155, -187500.02, -187500.02, -187500.02, -187500.02, -187500.02, -187500.02, -34309.95, -29079.60, 0.00, 0.00, 0.00
156, -187500.02, -187500.02, -187500.02, -187500.02, -187500.02, -187500.02, -32173.53, -29310.49, 0.00, 0.00, 0.00
157, -187500.02, -187500.02, -187500.02, -187500.02, -187500.02, -187500.02, -33204.59, -29308.88, 0.00, 0.00, 0.00
158, -187500.02, -187500.02, -187500.02, -187500.02, -187500.02, -187500.02, -35396.04, -29088.51, 0.02, 0.89, 0.47
159, -187500.02, -187500.02, -187500.02, -187500.02, -187500.02, -187500.02, -34758.73, -29051.21, 0.00, 0.00, 0.00
160, -187500.02, -187500.02, -187500.02, -187500.02, -187500.02, -187500.02, -32404.11, -29261.38, 0.00, 0.00, 0.00
161, -187500.02, -187500.02, -187500.02, -187500.02, -187500.02, -187500.02, -32810.39, -29332.62, 0.00, 0.00, 0.00
162, -187500.02, -187500.02, -187500.02, -187500.02, -187500.02, -187500.02, -35200.13, -29134.76, 0.00, 0.00, 0.00
163, -187500.02, -187500.02, -187500.02, -187500.02, -187500.02, -187500.02, -35079.63, -29073.74, 0.00, 0.00, 0.00
164, -187500.02, -187500.02, -187500.02, -187500.02, -187500.02, -187500.02, -32726.39, -29242.36, 0.00, 0.00, 0.00
165, -187500.02, -187500.02, -187500.02, -187500.02, -187500.02, -187500.02, -32508.38, -29354.59, 0.00, 0.00, 0.00
166, -187500.02, -187500.02, -187500.02, -187500.02, -187500.02, -187500.02, -34904.91, -29181.79, 0.00, 0.00, 0.00
167, -187500.02, -187500.02, -187500.02, -187500.02, -187500.02, -187500.02, -35391.30, -29072.00, 0.00, 0.00, 0.00
168, -187500.02, -187500.02, -187500.02, -187500.02, -187500.02, -187500.02, -33181.54, -29198.22, 0.02, 0.88, 0.47
169, -187500.02, -187500.02, -187500.02, -187500.02, -187500.02, -187500.02, -32259.67, -29380.23, 0.00, 0.00, 0.00
170, -187500.02, -187500.02, -187500.02, -187500.02, -187500.02, -187500.02, -34481.14, -29225.89, 0.00, 0.00, 0.00
171, -187500.02, -187500.02, -187500.02, -187500.02, -187500.02, -187500.02, -35543.21, -29065.92, 0.00, 0.00, 0.00
172, -187500.02, -187500.02, -187500.02, -187500.02, -187500.02, -187500.02, -33602.92, -29138.45, 0.00, 0.00, 0.00
173, -187500.02, -187500.02, -187500.02, -187500.02, -187500.02, -187500.02, -32137.02, -29342.52, 0.00, 0.00, 0.00
174, -187500.02, -187500.02, -187500.02, -187500.02, -187500.02, -187500.02, -34017.88, -29250.99, 0.00, 0.00, 0.00
175, -187500.02, -187500.02, -187500.02, -187500.02, -187500.02, -187500.02, -35556.68, -29050.58, 0.00, 0.00, 0.00
176, -187500.02, -187500.02, -187500.02, -187500.02, -187500.02, -187500.02, -34011.91, -29072.87, 0.00, 0.00, 0.00
177, -187500.02, -187500.02, -187500.02, -187500.02, -187500.02, -187500.02, -32117.76, -29285.72, 0.00, 0.00, 0.00
178, -187500.02, -187500.02, -187500.02, -187500.02, -187500.02, -187500.02, -33559.91, -29272.65, 0.02, 0.87, 0.48
179, -187500.02, -187500.02, -187500.02, -187500.02, -187500.02, -187500.02, -35480.18, -29099.98, 0.00, 0.00, 0.00
180, -187500.02, -187500.02, -187500.02, -187500.02, -187500.02, -187500.02, -34438.02, -29078.32, 0.00, 0.00, 0.00
181, -187500.02, -187500.02, -187500.02, -187500.02, -187500.02, -187500.02, -32244.87, -29281.48, 0.00, 0.00, 0.00
182, -187500.02, -187500.02, -187500.02, -187500.02, -187500.02, -187500.02, -33102.75, -29320.91, 0.00, 0.00, 0.00
183, -187500.02, -187500.02, -187500.02, -187500.02, -187500.02, -187500.02, -35314.46, -29125.44, 0.00, 0.00, 0.00
184, -187500.02, -187500.02, -187500.02, -187500.02, -187500.02, -187500.02, -34798.58, -29072.31, 0.00, 0.00, 0.00
185, -187500.02, -187500.02, -187500.02, -187500.02, -187500.02, -187500.02, -32433.59, -29266.97, 0.00, 0.00, 0.00
186, -187500.02, -187500.02, -187500.02, -187500.02, -187500.02, -187500.02, -32672.10, -29353.74, 0.00, 0.00, 0.00
187, -187500.02, -187500.02, -187500.02, -187500.02, -187500.02, -187500.02, -35056.18, -29170.61, 0.00, 0.00, 0.00
188, -187500.02, -187500.02, -187500.02, -187500.02, -187500.02, -187500.02, -35108.02, -29048.04, 0.03, 0.88, 0.48
189, -187500.02, -187500.02, -187500.02, -187500.02, -187500.02, -187500.02, -32749.75, -29189.10, 0.00, 0.00, 0.00
190, -187500.02, -187500.02, -187500.02, -187500.02, -187500.02, -187500.02, -32347.20, -29346.32, 0.00, 0.00, 0.00
191, -187500.02, -187500.02, -187500.02, -187500.02, -187500.02, -187500.02, -34689.75, -29200.61, 0.00, 0.00, 0.00
192, -187500.02, -187500.02, -187500.02, -187500.02, -187500.02, -187500.02, -35317.23, -29046.96, 0.00, 0.00, 0.00
193, -187500.02, -187500.02, -187500.02, -187500.02, -187500.02, -187500.02, -33118.60, -29167.06, 0.00, 0.00, 0.00
194, -187500.02, -187500.02, -187500.02, -187500.02, -187500.02, -187500.02, -32091.87, -29354.34, 0.00, 0.00, 0.00
195, -187500.02, -187500.02, -187500.02, -187500.02, -187500.02, -187500.02, -34270.23, -29233.26, 0.00, 0.00, 0.00
196, -187500.02, -187500.02, -187500.02, -187500.02, -187500.02, -187500.02, -35427.47, -29063.88, 0.00, 0.00, 0.00
197, -187500.02, -187500.02, -187500.02, -187500.02, -187500.02, -187500.02, -33518.32, -29140.88, 0.00, 0.00, 0.00
198, -187500.02, -187500.02, -187500.02, -187500.02, -187500.02, -187500.02, -31941.89, -29348.82, 0.02, 0.88, 0.48
199, -187500.02, -187500.02, -187500.02, -187500.02, -187500.02, -187500.02, -33777.60, -29288.47, 0.00, 0.00, 0.00
200, -187500.02, -187500.02, -187500.02, -187500.02, -187500.02, -187500.02, -35413.34, -29089.48, 0.00, 0.00, 0.00
201, -187500.02, -187500.02, -187500.02, -187500.02, -187500.02, -187500.02, -33935.07, -29111.71, 0.00, 0.00, 0.00
202, -187500.02, -187500.02, -187500.02, -187500.02, -187500.02, -187500.02, -31925.71, -29336.02, 0.00, 0.00, 0.00
203, -187500.02, -187500.02, -187500.02, -187500.02, -187500.02, -187500.02, -33280.52, -29322.27, 0.00, 0.00, 0.00
204, -187500.02, -187500.02, -187500.02, -187500.02, -187500.02, -187500.02, -35293.83, -29123.29, 0.00, 0.00, 0.00
205, -187500.02, -187500.02, -187500.02, -187500.02, -187500.02, -187500.02, -34320.03, -29107.25, 0.00, 0.00, 0.00
206, -187500.02, -187500.02, -187500.02, -187500.02, -187500.02, -187500.02, -32060.04, -29303.34, 0.00, 0.00, 0.00
207, -187500.02, -187500.02, -187500.02, -187500.02, -187500.02, -187500.02, -32858.74, -29337.24, 0.00, 0.00, 0.00
208, -187500.02, -187500.02, -187500.02, -187500.02, -187500.02, -187500.02, -35136.20, -29147.21, 0.02, 0.88, 0.47
209, -187500.02, -187500.02, -187500.02, -187500.02, -187500.02, -187500.02, -34737.94, -29069.11, 0.00, 0.00, 0.00
210, -187500.02, -187500.02, -187500.02, -187500.02, -187500.02, -187500.02, -32365.91, -29245.98, 0.00, 0.00, 0.00
211, -187500.02, -187500.02, -187500.02, -187500.02, -187500.02, -187500.02, -32477.38, -29367.15, 0.00, 0.00, 0.00
212, -187500.02, -187500.02, -187500.02, -187500.02, -187500.02, -187500.02, -34853.05, -29187.29, 0.00, 0.00, 0.00
213, -187500.02, -187500.02, -187500.02, -187500.02, -187500.02, -187500.02, -34994.47, -29084.87, 0.00, 0.00, 0.00
214, -187500.02, -187500.02, -187500.02, -187500.02, -187500.02, -187500.02, -32617.81, -29239.03, 0.00, 0.00, 0.00
215, -187500.02, -187500.02, -187500.02, -187500.02, -187500.02, -187500.02, -32081.28, -29380.50, 0.00, 0.00, 0.00
216, -187500.02, -187500.02, -187500.02, -187500.02, -187500.02, -187500.02, -34452.96, -29210.87, 0.00, 0.00, 0.00
217, -187500.02, -187500.02, -187500.02, -187500.02, -187500.02, -187500.02, -35162.24, -29047.86, 0.00, 0.00, 0.00
218, -187500.02, -187500.02, -187500.02, -187500.02, -187500.02, -187500.02, -33024.90, -29164.09, 0.02, 0.88, 0.48
219, -187500.02, -187500.02, -187500.02, -187500.02, -187500.02, -187500.02, -31894.51, -29368.18, 0.00, 0.00, 0.00
220, -187500.02, -187500.02, -187500.02, -187500.02, -187500.02, -187500.02, -34021.12, -29254.50, 0.00, 0.00, 0.00
221, -187500.02, -187500.02, -187500.02, -187500.02, -187500.02, -187500.02, -35296.69, -29082.32, 0.00, 0.00, 0.00
222, -187500.02, -187500.02, -187500.02, -187500.02, -187500.02, -187500.02, -33486.24, -29159.91, 0.00, 0.00, 0.00
223, -187500.02, -187500.02, -187500.02, -187500.02, -187500.02, -187500.02, -31794.93, -29368.54, 0.00, 0.00, 0.00
224, -187500.02, -187500.02, -187500.02, -187500.02, -187500.02, -187500.02, -33572.48, -29281.59, 0.00, 0.00, 0.00
225, -187500.02, -187500.02, -187500.02, -187500.02, -187500.02, -187500.02, -35325.75, -29092.22, 0.00, 0.00, 0.00
226, -187500.02, -187500.02, -187500.02, -187500.02, -187500.02, -187500.02, -33972.88, -29107.36, 0.00, 0.00, 0.00
227, -187500.02, -187500.02, -187500.02, -187500.02, -187500.02, -187500.02, -31925.49, -29318.74, 0.00, 0.00, 0.00
228, -187500.02, -187500.02, -187500.02, -187500.02, -187500.02, -187500.02, -33168.51, -29320.53, 0.02, 0.88, 0.48
229, -187500.02, -187500.02, -187500.02, -187500.02, -187500.02, -187500.02, -35242.04, -29130.49, 0.00, 0.00, 0.00
230, -187500.02, -187500.02, -187500.02, -187500.02, -187500.02, -187500.02, -34405.35, -29094.64, 0.00, 0.00, 0.00
231, -187500.02, -187500.02, -187500.02, -187500.02, -187500.02, -187500.02, -32098.76, -29290.78, 0.00, 0.00, 0.00
232, -187500.02, -187500.02, -187500.02, -187500.02, -187500.02, -187500.02, -32691.86, -29360.40, 0.00, 0.00, 0.00
233, -187500.02, -187500.02, -187500.02, -187500.02, -187500.02, -187500.02, -35020.36, -29157.09, 0.00, 0.00, 0.00
234, -187500.02, -187500.02, -187500.02, -187500.02, -187500.02, -187500.02, -34735.66, -29085.92, 0.00, 0.00, 0.00
235, -187500.02, -187500.02, -187500.02, -187500.02, -187500.02, -187500.02, -32312.73, -29263.35, 0.00, 0.00, 0.00
236, -187500.02, -187500.02, -187500.02, -187500.02, -187500.02, -187500.02, -32259.47, -29366.26, 0.00, 0.00, 0.00
237, -187500.02, -187500.02, -187500.02, -187500.02, -187500.02, -187500.02, -34665.41, -29195.63, 0.03, 0.88, 0.48
238, -187500.02, -187500.02, -187500.02, -187500.02, -187500.02, -187500.02, -34977.11, -29097.88, 0.00, 0.00, 0.00
239, -187500.02, -187500.02, -187500.02, -187500.02, -187500.02, -187500.02, -32679.34, -29200.90, 0.00, 0.00, 0.00
240, -187500.02, -187500.02, -187500.02, -187500.02, -187500.02, -187500.02, -31989.53, -29352.85, 0.00, 0.00, 0.00
241, -187500.02, -187500.02, -187500.02, -187500.02, -187500.02, -187500.02, -34318.87, -29206.80, 0.00, 0.00, 0.00
242, -187500.02, -187500.02, -187500.02, -187500.02, -187500.02, -187500.02, -35169.98, -29071.93, 0.00, 0.00, 0.00
243, -187500.02, -187500.02, -187500.02, -187500.02, -187500.02, -187500.02, -33085.36, -29171.10, 0.00, 0.00, 0.00
244, -187500.02, -187500.02, -187500.02, -187500.02, -187500.02, -187500.02, -31807.45, -29352.15, 0.00, 0.00, 0.00
245, -187500.02, -187500.02, -187500.02, -187500.02, -187500.02, -187500.02, -33883.99, -29236.44, 0.00, 0.00, 0.00
246, -187500.02, -187500.02, -187500.02, -187500.02, -187500.02, -187500.02, -35283.88, -29053.45, 0.00, 0.00, 0.00
247, -187500.02, -187500.02, -187500.02, -187500.02, -187500.02, -187500.02, -33592.75, -29105.97, 0.03, 0.88, 0.48
248, -187500.02, -187500.02, -187500.02, -187500.02, -187500.02, -187500.02, -31818.62, -29321.02, 0.00, 0.00, 0.00
249, -187500.02, -187500.02, -187500.02, -187500.02, -187500.02, -187500.02, -33444.67, -29281.32, 0.00, 0.00, 0.00
250, -187500.02, -187500.02, -187500.02, -187500.02, -187500.02, -187500.02, -35271.81, -29097.30, 0.00, 0.00, 0.00
251, -187500.02, -187500.02, -187500.02, -187500.02, -187500.02, -187500.02, -34000.54, -29117.86, 0.00, 0.00, 0.00
252, -187500.02, -187500.02, -187500.02, -187500.02, -187500.02, -187500.02, -31886.24, -29314.67, 0.00, 0.00, 0.00
253, -187500.02, -187500.02, -187500.02, -187500.02, -187500.02, -187500.02, -32945.26, -29334.56, 0.00, 0.00, 0.00
254, -187500.02, -187500.02, -187500.02, -187500.02, -187500.02, -187500.02, -35079.83, -29130.65, 0.00, 0.00, 0.00
255, -187500.02, -187500.02, -187500.02, -187500.02, -187500.02, -187500.02, -34374.07, -29057.29, 0.00, 0.00, 0.00
0, -187500.02, -187500.02, -187500.02, -187500.02, -187500.02, -187500.02, -32070.19, -29246.45, 0.00, 0.00, 0.00
1, -187500.02, -187500.02, -187500.02, -187500.02, -187500.02, -187500.02, -32558.42, -29325.02, 0.03, 0.88, 0.47
2, -187500.02, -187500.02, -187500.02, -187500.02, -187500.02, -187500.02, -34897.64, -29141.26, 0.00, 0.00, 0.00
3, -187500.02, -187500.02, -187500.02, -187500.02, -187500.02, -187500.02, -34756.00, -29056.80, 0.00, 0.00, 0.00
4, -187500.02, -187500.02, -187500.02, -187500.02, -187500.02, -187500.02, -32416.11, -29227.01, 0.00, 0.00, 0.00
5, -187500.02, -187500.02, -187500.02, -187500.02, -187500.02, -187500.02, -32228.67, -29356.27, 0.00, 0.00, 0.00
6, -187500.02, -187500.02, -187500.02, -187500.02, -187500.02, -187500.02, -34599.47, -29193.93, 0.00, 0.00, 0.00
7, -187500.02, -187500.02, -187500.02, -187500.02, -187500.02, -187500.02, -35024.78, -29067.53, 0.00, 0.00, 0.00
8, -187500.02, -187500.02, -187500.02, -187500.02, -187500.02, -187500.02, -32760.73, -29174.64, 0.00, 0.00, 0.00
9, -187500.02, -187500.02, -187500.02, -187500.02, -187500.02, -187500.02, -31950.48, -29344.96, 0.00, 0.00, 0.00
10, -187500.02, -187500.02, -187500.02, -187500.02, -187500.02, -187500.02, -34224.14, -29210.67, 0.00, 0.00, 0.00
11, -187500.02, -187500.02, -187500.02, -187500.02, -187500.02, -187500.02, -35178.07, -29062.83, 0.03, 0.88, 0.47
