%OpenBCI Raw EEG Data
%
%Sample Rate = 250.0 Hz
%First Column = SampleIndex
%Other Columns = EEG data in microvolts followed by Accel Data (in G) interleaved with Aux Data
0, -187500.02, -187500.02, -187500.02, -187500.02, -187500.02, -187500.02, -187500.02, -38149.78, 0.06, 0.84, 0.54
1, -187500.02, -187500.02, -187500.02, -187500.02, -187500.02, -187500.02, -187500.02, -37546.70, 0.00, 0.00, 0.00
2, -187500.02, -187500.02, -187500.02, -187500.02, -187500.02, -187500.02, -187500.02, -37955.18, 0.00, 0.00, 0.00
3, -187500.02, -187500.02, -187500.02, -187500.02, -187500.02, -187500.02, -187500.02, -38634.83, 0.00, 0.00, 0.00
4, -187500.02, -187500.02, -187500.02, -187500.02, -187500.02, -187500.02, -187500.02, -38325.13, 0.00, 0.00, 0.00
5, -187500.02, -187500.02, -187500.02, -187500.02, -187500.02, -187500.02, -187500.02, -37601.33, 0.00, 0.00, 0.00
6, -187500.02, -187500.02, -187500.02, -187500.02, -187500.02, -187500.02, -187500.02, -37839.51, 0.00, 0.00, 0.00
7, -187500.02, -187500.02, -187500.02, -187500.02, -187500.02, -187500.02, -187500.02, -38576.18, 0.02, 0.89, 0.47
8, -187500.02, -187500.02, -187500.02, -187500.02, -187500.02, -187500.02, -187500.02, -38418.47, 0.00, 0.00, 0.00
9, -187500.02, -187500.02, -187500.02, -187500.02, -187500.02, -187500.02, -187500.02, -37672.77, 0.00, 0.00, 0.00
10, -187500.02, -187500.02, -187500.02, -187500.02, -187500.02, -187500.02, -187500.02, -37721.23, 0.00, 0.00, 0.00
11, -187500.02, -187500.02, -187500.02, -187500.02, -187500.02, -187500.02, -187500.02, -38473.48, 0.00, 0.00, 0.00
12, -187500.02, -187500.02, -187500.02, -187500.02, -187500.02, -187500.02, -187500.02, -38506.40, 0.00, 0.00, 0.00
13, -187500.02, -187500.02, -187500.02, -187500.02, -187500.02, -187500.02, -187500.02, -37786.76, 0.00, 0.00, 0.00
14, -187500.02, -187500.02, -187500.02, -187500.02, -187500.02, -187500.02, -187500.02, -37639.22, 0.00, 0.00, 0.00
15, -187500.02, -187500.02, -187500.02, -187500.02, -187500.02, -187500.02, -187500.02, -38378.79, 0.00, 0.00, 0.00
16, -187500.02, -187500.02, -187500.02, -187500.02, -187500.02, -187500.02, -187500.02, -38584.27, 0.00, 0.00, 0.00
17, -187500.02, -187500.02, -187500.02, -187500.02, -187500.02, -187500.02, -187500.02, -37901.67, 0.03, 0.87, 0.47
18, -187500.02, -187500.02, -187500.02, -187500.02, -187500.02, -187500.02, -187500.02, -37557.43, 0.00, 0.00, 0.00
19, -187500.02, -187500.02, -187500.02, -187500.02, -187500.02, -187500.02, -187500.02, -38202.50, 0.00, 0.00, 0.00
20, -187500.02, -187500.02, -187500.02, -187500.02, -187500.02, -187500.02, -187500.02, -38629.51, 0.00, 0.00, 0.00
21, -187500.02, -187500.02, -187500.02, -187500.02, -187500.02, -187500.02, -187500.02, -38061.89, 0.00, 0.00, 0.00
22, -187500.02, -187500.02, -187500.02, -187500.02, -187500.02, -187500.02, -187500.02, -37576.88, 0.00, 0.00, 0.00
23, -187500.02, -187500.02, -187500.02, -187500.02, -187500.02, -187500.02, -187500.02, -38115.67, 0.00, 0.00, 0.00
24, -187500.02, -187500.02, -187500.02, -187500.02, -187500.02, -187500.02, -187500.02, -38681.46, 0.00, 0.00, 0.00
25, -187500.02, -187500.02, -187500.02, -187500.02, -187500.02, -187500.02, -187500.02, -38224.97, 0.00, 0.00, 0.00
26, -187500.02, -187500.02, -187500.02, -187500.02, -187500.02, -187500.02, -187500.02, -37605.54, 0.04, 0.87, 0.47
27, -187500.02, -187500.02, -187500.02, -187500.02, -187500.02, -187500.02, -187500.02, -37995.66, 0.00, 0.00, 0.00
28, -187500.02, -187500.02, -187500.02, -187500.02, -187500.02, -187500.02, -187500.02, -38666.32, 0.00, 0.00, 0.00
29, -187500.02, -187500.02, -187500.02, -187500.02, -187500.02, -187500.02, -187500.02, -38393.52, 0.00, 0.00, 0.00
30, -187500.02, -187500.02, -187500.02, -187500.02, -187500.02, -187500.02, -187500.02, -37706.14, 0.00, 0.00, 0.00
31, -187500.02, -187500.02, -187500.02, -187500.02, -187500.02, -187500.02, -187500.02, -37907.13, 0.00, 0.00, 0.00
32, -187500.02, -187500.02, -187500.02, -187500.02, -187500.02, -187500.02, -187500.02, -38629.82, 0.00, 0.00, 0.00
33, -187500.02, -187500.02, -187500.02, -187500.02, -187500.02, -187500.02, -187500.02, -38530.05, 0.00, 0.00, 0.00
34, -187500.02, -187500.02, -187500.02, -187500.02, -187500.02, -187500.02, -187500.02, -37781.20, 0.00, 0.00, 0.00
35, -187500.02, -187500.02, -187500.02, -187500.02, -187500.02, -187500.02, -187500.02, -37778.14, 0.00, 0.00, 0.00
36, -187500.02, -187500.02, -187500.02, -187500.02, -187500.02, -187500.02, -187500.02, -38533.91, 0.03, 0.87, 0.47
37, -187500.02, -187500.02, -187500.02, -187500.02, -187500.02, -187500.02, -187500.02, -38629.89, 0.00, 0.00, 0.00
38, -187500.02, -187500.02, -187500.02, -187500.02, -187500.02, -187500.02, -187500.02, -37917.59, 0.00, 0.00, 0.00
39, -187500.02, -187500.02, -187500.02, -187500.02, -187500.02, -187500.02, -187500.02, -37721.63, 0.00, 0.00, 0.00
40, -187500.02, -187500.02, -187500.02, -187500.02, -187500.02, -187500.02, -187500.02, -38417.53, 0.00, 0.00, 0.00
41, -187500.02, -187500.02, -187500.02, -187500.02, -187500.02, -187500.02, -187500.02, -38695.83, 0.00, 0.00, 0.00
42, -187500.02, -187500.02, -187500.02, -187500.02, -187500.02, -187500.02, -187500.02, -38043.90, 0.00, 0.00, 0.00
43, -187500.02, -187500.02, -187500.02, -187500.02, -187500.02, -187500.02, -187500.02, -37676.41, 0.00, 0.00, 0.00
44, -187500.02, -187500.02, -187500.02, -187500.02, -187500.02, -187500.02, -187500.02, -38295.18, 0.00, 0.00, 0.00
45, -187500.02, -187500.02, -187500.02, -187500.02, -187500.02, -187500.02, -187500.02, -38725.60, 0.00, 0.00, 0.00
46, -187500.02, -187500.02, -187500.02, -187500.02, -187500.02, -187500.02, -187500.02, -38164.57, 0.04, 0.87, 0.47
47, -187500.02, -187500.02, -187500.02, -187500.02, -187500.02, -187500.02, -187500.02, -37643.55, 0.00, 0.00, 0.00
48, -187500.02, -187500.02, -187500.02, -187500.02, -187500.02, -187500.02, -187500.02, -38151.61, 0.00, 0.00, 0.00
49, -187500.02, -187500.02, -187500.02, -187500.02, -187500.02, -187500.02, -187500.02, -38733.38, 0.00, 0.00, 0.00
50, -187500.02, -187500.02, -187500.02, -187500.02, -187500.02, -187500.02, -187500.02, -38332.04, 0.00, 0.00, 0.00
51, -187500.02, -187500.02, -187500.02, -187500.02, -187500.02, -187500.02, -187500.02, -37690.83, 0.00, 0.00, 0.00
52, -187500.02, -187500.02, -187500.02, -187500.02, -187500.02, -187500.02, -187500.02, -38023.36, 0.00, 0.00, 0.00
53, -187500.02, -187500.02, -187500.02, -187500.02, -187500.02, -187500.02, -187500.02, -38705.57, 0.00, 0.00, 0.00
54, -187500.02, -187500.02, -187500.02, -187500.02, -187500.02, -187500.02, -187500.02, -38451.30, 0.00, 0.00, 0.00
55, -187500.02, -187500.02, -187500.02, -187500.02, -187500.02, -187500.02, -187500.02, -37746.53, 0.00, 0.00, 0.00
56, -187500.02, -187500.02, -187500.02, -187500.02, -187500.02, -187500.02, -187500.02, -37908.45, 0.04, 0.88, 0.47
57, -187500.02, -187500.02, -187500.02, -187500.02, -187500.02, -187500.02, -187500.02, -38625.54, 0.00, 0.00, 0.00
58, -187500.02, -187500.02, -187500.02, -187500.02, -187500.02, -187500.02, -187500.02, -38552.64, 0.00, 0.00, 0.00
59, -187500.02, -187500.02, -187500.02, -187500.02, -187500.02, -187500.02, -187500.02, -37825.16, 0.00, 0.00, 0.00
60, -187500.02, -187500.02, -187500.02, -187500.02, -187500.02, -187500.02, -187500.02, -37795.03, 0.00, 0.00, 0.00
61, -187500.02, -187500.02, -187500.02, -187500.02, -187500.02, -187500.02, -187500.02, -38538.14, 0.00, 0.00, 0.00
62, -187500.02, -187500.02, -187500.02, -187500.02, -187500.02, -187500.02, -187500.02, -38662.84, 0.00, 0.00, 0.00
63, -187500.02, -187500.02, -187500.02, -187500.02, -187500.02, -187500.02, -187500.02, -37943.74, 0.00, 0.00, 0.00
64, -187500.02, -187500.02, -187500.02, -187500.02, -187500.02, -187500.02, -187500.02, -37726.59, 0.00, 0.00, 0.00
65, -187500.02, -187500.02, -187500.02, -187500.02, -187500.02, -187500.02, -187500.02, -38434.56, 0.00, 0.00, 0.00
66, -187500.02, -187500.02, -187500.02, -187500.02, -187500.02, -187500.02, -187500.02, -38726.07, 0.04, 0.88, 0.47
67, -187500.02, -187500.02, -187500.02, -187500.02, -187500.02, -187500.02, -187500.02, -38072.20, 0.00, 0.00, 0.00
68, -187500.02, -187500.02, -187500.02, -187500.02, -187500.02, -187500.02, -187500.02, -37671.67, 0.00, 0.00, 0.00
69, -187500.02, -187500.02, -187500.02, -187500.02, -187500.02, -187500.02, -187500.02, -38265.09, 0.00, 0.00, 0.00
70, -187500.02, -187500.02, -187500.02, -187500.02, -187500.02, -187500.02, -187500.02, -38748.18, 0.00, 0.00, 0.00
71, -187500.02, -187500.02, -187500.02, -187500.02, -187500.02, -187500.02, -187500.02, -38240.91, 0.00, 0.00, 0.00
72, -187500.02, -187500.02, -187500.02, -187500.02, -187500.02, -187500.02, -187500.02, -37696.42, 0.00, 0.00, 0.00
73, -187500.02, -187500.02, -187500.02, -187500.02, -187500.02, -187500.02, -187500.02, -38150.67, 0.00, 0.00, 0.00
74, -187500.02, -187500.02, -187500.02, -187500.02, -187500.02, -187500.02, -187500.02, -38752.94, 0.00, 0.00, 0.00
75, -187500.02, -187500.02, -187500.02, -187500.02, -187500.02, -187500.02, -187500.02, -38371.71, 0.00, 0.00, 0.00
76, -187500.02, -187500.02, -187500.02, -187500.02, -187500.02, -187500.02, -187500.02, -37720.56, 0.04, 0.88, 0.47
77, -187500.02, -187500.02, -187500.02, -187500.02, -187500.02, -187500.02, -187500.02, -38019.78, 0.00, 0.00, 0.00
98, -187500.02, -187500.02, -187500.02, -187500.02, -187500.02, -187500.02, -187500.02, -38095.93, 0.00, 0.00, 0.00
99, -187500.02, -187500.02, -187500.02, -187500.02, -187500.02, -187500.02, -187500.02, -38720.84, 0.00, 0.00, 0.00
100, -187500.02, -187500.02, -187500.02, -187500.02, -187500.02, -187500.02, -187500.02, -38347.57, 0.00, 0.00, 0.00
101, -187500.02, -187500.02, -187500.02, -187500.02, -187500.02, -187500.02, -187500.02, -37690.74, 0.00, 0.00, 0.00
102, -187500.02, -187500.02, -187500.02, -187500.02, -187500.02, -187500.02, -187500.02, -37964.55, 0.00, 0.00, 0.00
103, -187500.02, -187500.02, -187500.02, -187500.02, -187500.02, -187500.02, -187500.02, -38652.85, 0.00, 0.00, 0.00
104, -187500.02, -187500.02, -187500.02, -187500.02, -187500.02, -187500.02, -187500.02, -38446.95, 0.00, 0.00, 0.00
105, -187500.02, -187500.02, -187500.02, -187500.02, -187500.02, -187500.02, -187500.02, -37712.15, 0.00, 0.00, 0.00
106, -187500.02, -187500.02, -187500.02, -187500.02, -187500.02, -187500.02, -187500.02, -37794.47, 0.03, 0.87, 0.48
107, -187500.02, -187500.02, -187500.02, -187500.02, -187500.02, -187500.02, -187500.02, -38530.20, 0.00, 0.00, 0.00
108, -187500.02, -187500.02, -187500.02, -187500.02, -187500.02, -187500.02, -187500.02, -38545.61, 0.00, 0.00, 0.00
109, -187500.02, -187500.02, -187500.02, -187500.02, -187500.02, -187500.02, -187500.02, -37844.99, 0.00, 0.00, 0.00
110, -187500.02, -187500.02, -187500.02, -187500.02, -187500.02, -187500.02, -187500.02, -37743.60, 0.00, 0.00, 0.00
111, -187500.02, -187500.02, -187500.02, -187500.02, -187500.02, -187500.02, -187500.02, -38464.16, 0.00, 0.00, 0.00
112, -187500.02, -187500.02, -187500.02, -187500.02, -187500.02, -187500.02, -187500.02, -38657.83, 0.00, 0.00, 0.00
113, -187500.02, -187500.02, -187500.02, -187500.02, -187500.02, -187500.02, -187500.02, -37980.55, 0.00, 0.00, 0.00
114, -187500.02, -187500.02, -187500.02, -187500.02, -187500.02, -187500.02, -187500.02, -37680.77, 0.00, 0.00, 0.00
115, -187500.02, -187500.02, -187500.02, -187500.02, -187500.02, -187500.02, -187500.02, -38330.60, 0.03, 0.87, 0.48
116, -187500.02, -187500.02, -187500.02, -187500.02, -187500.02, -187500.02, -187500.02, -38719.01, 0.00, 0.00, 0.00
117, -187500.02, -187500.02, -187500.02, -187500.02, -187500.02, -187500.02, -187500.02, -38117.23, 0.00, 0.00, 0.00
118, -187500.02, -187500.02, -187500.02, -187500.02, -187500.02, -187500.02, -187500.02, -37649.30, 0.00, 0.00, 0.00
119, -187500.02, -187500.02, -187500.02, -187500.02, -187500.02, -187500.02, -187500.02, -38203.73, 0.00, 0.00, 0.00
120, -187500.02, -187500.02, -187500.02, -187500.02, -187500.02, -187500.02, -187500.02, -38738.54, 0.00, 0.00, 0.00
121, -187500.02, -187500.02, -187500.02, -187500.02, -187500.02, -187500.02, -187500.02, -38274.59, 0.00, 0.00, 0.00
122, -187500.02, -187500.02, -187500.02, -187500.02, -187500.02, -187500.02, -187500.02, -37681.60, 0.00, 0.00, 0.00
123, -187500.02, -187500.02, -187500.02, -187500.02, -187500.02, -187500.02, -187500.02, -38077.56, 0.00, 0.00, 0.00
124, -187500.02, -187500.02, -187500.02, -187500.02, -187500.02, -187500.02, -187500.02, -38719.93, 0.00, 0.00, 0.00
125, -187500.02, -187500.02, -187500.02, -187500.02, -187500.02, -187500.02, -187500.02, -38385.77, 0.03, 0.87, 0.48
126, -187500.02, -187500.02, -187500.02, -187500.02, -187500.02, -187500.02, -187500.02, -37696.30, 0.00, 0.00, 0.00
127, -187500.02, -187500.02, -187500.02, -187500.02, -187500.02, -187500.02, -187500.02, -37921.99, 0.00, 0.00, 0.00
128, -187500.02, -187500.02, -187500.02, -187500.02, -187500.02, -187500.02, -187500.02, -38653.68, 0.00, 0.00, 0.00
129, -187500.02, -187500.02, -187500.02, -187500.02, -187500.02, -187500.02, -187500.02, -38506.38, 0.00, 0.00, 0.00
130, -187500.02, -187500.02, -187500.02, -187500.02, -187500.02, -187500.02, -187500.02, -37772.26, 0.00, 0.00, 0.00
131, -187500.02, -187500.02, -187500.02, -187500.02, -187500.02, -187500.02, -187500.02, -37805.65, 0.00, 0.00, 0.00
132, -187500.02, -187500.02, -187500.02, -187500.02, -187500.02, -187500.02, -187500.02, -38557.85, 0.00, 0.00, 0.00
133, -187500.02, -187500.02, -187500.02, -187500.02, -187500.02, -187500.02, -187500.02, -38619.88, 0.00, 0.00, 0.00
134, -187500.02, -187500.02, -187500.02, -187500.02, -187500.02, -187500.02, -187500.02, -37893.78, 0.00, 0.00, 0.00
135, -187500.02, -187500.02, -187500.02, -187500.02, -187500.02, -187500.02, -187500.02, -37736.52, 0.04, 0.86, 0.48
136, -187500.02, -187500.02, -187500.02, -187500.02, -187500.02, -187500.02, -187500.02, -38458.10, 0.00, 0.00, 0.00
137, -187500.02, -187500.02, -187500.02, -187500.02, -187500.02, -187500.02, -187500.02, -38703.41, 0.00, 0.00, 0.00
138, -187500.02, -187500.02, -187500.02, -187500.02, -187500.02, -187500.02, -187500.02, -38021.57, 0.00, 0.00, 0.00
139, -187500.02, -187500.02, -187500.02, -187500.02, -187500.02, -187500.02, -187500.02, -37684.30, 0.00, 0.00, 0.00
140, -187500.02, -187500.02, -187500.02, -187500.02, -187500.02, -187500.02, -187500.02, -38343.57, 0.00, 0.00, 0.00
141, -187500.02, -187500.02, -187500.02, -187500.02, -187500.02, -187500.02, -187500.02, -38770.24, 0.00, 0.00, 0.00
142, -187500.02, -187500.02, -187500.02, -187500.02, -187500.02, -187500.02, -187500.02, -38193.92, 0.00, 0.00, 0.00
143, -187500.02, -187500.02, -187500.02, -187500.02, -187500.02, -187500.02, -187500.02, -37710.10, 0.00, 0.00, 0.00
144, -187500.02, -187500.02, -187500.02, -187500.02, -187500.02, -187500.02, -187500.02, -38223.96, 0.00, 0.00, 0.00
145, -187500.02, -187500.02, -187500.02, -187500.02, -187500.02, -187500.02, -187500.02, -38780.25, 0.04, 0.88, 0.47
146, -187500.02, -187500.02, -187500.02, -187500.02, -187500.02, -187500.02, -187500.02, -38335.45, 0.00, 0.00, 0.00
147, -187500.02, -187500.02, -187500.02, -187500.02, -187500.02, -187500.02, -187500.02, -37694.41, 0.00, 0.00, 0.00
148, -187500.02, -187500.02, -187500.02, -187500.02, -187500.02, -187500.02, -187500.02, -38075.21, 0.00, 0.00, 0.00
149, -187500.02, -187500.02, -187500.02, -187500.02, -187500.02, -187500.02, -187500.02, -38763.82, 0.00, 0.00, 0.00
150, -187500.02, -187500.02, -187500.02, -187500.02, -187500.02, -187500.02, -187500.02, -38495.43, 0.00, 0.00, 0.00
151, -187500.02, -187500.02, -187500.02, -187500.02, -187500.02, -187500.02, -187500.02, -37795.05, 0.00, 0.00, 0.00
152, -187500.02, -187500.02, -187500.02, -187500.02, -187500.02, -187500.02, -187500.02, -37966.09, 0.00, 0.00, 0.00
153, -187500.02, -187500.02, -187500.02, -187500.02, -187500.02, -187500.02, -187500.02, -38694.71, 0.00, 0.00, 0.00
154, -187500.02, -187500.02, -187500.02, -187500.02, -187500.02, -187500.02, -187500.02, -38572.98, 0.00, 0.00, 0.00
155, -187500.02, -187500.02, -187500.02, -187500.02, -187500.02, -187500.02, -187500.02, -37830.86, 0.04, 0.88, 0.48
156, -187500.02, -187500.02, -187500.02, -187500.02, -187500.02, -187500.02, -187500.02, -37837.79, 0.00, 0.00, 0.00
157, -187500.02, -187500.02, -187500.02, -187500.02, -187500.02, -187500.02, -187500.02, -38588.63, 0.00, 0.00, 0.00
158, -187500.02, -187500.02, -187500.02, -187500.02, -187500.02, -187500.02, -187500.02, -38662.55, 0.00, 0.00, 0.00
159, -187500.02, -187500.02, -187500.02, -187500.02, -187500.02, -187500.02, -187500.02, -37934.30, 0.00, 0.00, 0.00
160, -187500.02, -187500.02, -187500.02, -187500.02, -187500.02, -187500.02, -187500.02, -37754.96, 0.00, 0.00, 0.00
161, -187500.02, -187500.02, -187500.02, -187500.02, -187500.02, -187500.02, -187500.02, -38482.75, 0.00, 0.00, 0.00
162, -187500.02, -187500.02, -187500.02, -187500.02, -187500.02, -187500.02, -187500.02, -38775.34, 0.00, 0.00, 0.00
163, -187500.02, -187500.02, -187500.02, -187500.02, -187500.02, -187500.02, -187500.02, -38117.68, 0.00, 0.00, 0.00
164, -187500.02, -187500.02, -187500.02, -187500.02, -187500.02, -187500.02, -187500.02, -37729.61, 0.00, 0.00, 0.00
165, -187500.02, -187500.02, -187500.02, -187500.02, -187500.02, -187500.02, -187500.02, -38347.79, 0.04, 0.88, 0.48
166, -187500.02, -187500.02, -187500.02, -187500.02, -187500.02, -187500.02, -187500.02, -38792.82, 0.00, 0.00, 0.00
167, -187500.02, -187500.02, -187500.02, -187500.02, -187500.02, -187500.02, -187500.02, -38233.48, 0.00, 0.00, 0.00
168, -187500.02, -187500.02, -187500.02, -187500.02, -187500.02, -187500.02, -187500.02, -37706.61, 0.00, 0.00, 0.00
169, -187500.02, -187500.02, -187500.02, -187500.02, -187500.02, -187500.02, -187500.02, -38206.64, 0.00, 0.00, 0.00
170, -187500.02, -187500.02, -187500.02, -187500.02, -187500.02, -187500.02, -187500.02, -38790.31, 0.00, 0.00, 0.00
171, -187500.02, -187500.02, -187500.02, -187500.02, -187500.02, -187500.02, -187500.02, -38388.09, 0.00, 0.00, 0.00
172, -187500.02, -187500.02, -187500.02, -187500.02, -187500.02, -187500.02, -187500.02, -37750.55, 0.00, 0.00, 0.00
173, -187500.02, -187500.02, -187500.02, -187500.02, -187500.02, -187500.02, -187500.02, -38090.88, 0.00, 0.00, 0.00
174, -187500.02, -187500.02, -187500.02, -187500.02, -187500.02, -187500.02, -187500.02, -38786.18, 0.00, 0.00, 0.00
175, -187500.02, -187500.02, -187500.02, -187500.02, -187500.02, -187500.02, -187500.02, -38539.12, 0.04, 0.88, 0.47
176, -187500.02, -187500.02, -187500.02, -187500.02, -187500.02, -187500.02, -187500.02, -37823.93, 0.00, 0.00, 0.00
177, -187500.02, -187500.02, -187500.02, -187500.02, -187500.02, -187500.02, -187500.02, -37970.89, 0.00, 0.00, 0.00
178, -187500.02, -187500.02, -187500.02, -187500.02, -187500.02, -187500.02, -187500.02, -38699.70, 0.00, 0.00, 0.00
179, -187500.02, -187500.02, -187500.02, -187500.02, -187500.02, -187500.02, -187500.02, -38634.56, 0.00, 0.00, 0.00
180, -187500.02, -187500.02, -187500.02, -187500.02, -187500.02, -187500.02, -187500.02, -37879.57, 0.00, 0.00, 0.00
181, -187500.02, -187500.02, -187500.02, -187500.02, -187500.02, -187500.02, -187500.02, -37835.58, 0.00, 0.00, 0.00
182, -187500.02, -187500.02, -187500.02, -187500.02, -187500.02, -187500.02, -187500.02, -38567.91, 0.00, 0.00, 0.00
184, -187500.02, -187500.02, -187500.02, -187500.02, -187500.02, -187500.02, -187500.02, -37996.67, 0.00, 0.00, 0.00
185, -187500.02, -187500.02, -187500.02, -187500.02, -187500.02, -187500.02, -187500.02, -37751.13, 0.03, 0.88, 0.47
186, -187500.02, -187500.02, -187500.02, -187500.02, -187500.02, -187500.02, -187500.02, -38456.06, 0.00, 0.00, 0.00
207, -187500.02, -187500.02, -187500.02, -187500.02, -187500.02, -187500.02, -187500.02, -38555.44, 0.00, 0.00, 0.00
208, -187500.02, -187500.02, -187500.02, -187500.02, -187500.02, -187500.02, -187500.02, -38705.06, 0.00, 0.00, 0.00
209, -187500.02, -187500.02, -187500.02, -187500.02, -187500.02, -187500.02, -187500.02, -38004.54, 0.00, 0.00, 0.00
210, -187500.02, -187500.02, -187500.02, -187500.02, -187500.02, -187500.02, -187500.02, -37741.23, 0.00, 0.00, 0.00
211, -187500.02, -187500.02, -187500.02, -187500.02, -187500.02, -187500.02, -187500.02, -38419.54, 0.00, 0.00, 0.00
212, -187500.02, -187500.02, -187500.02, -187500.02, -187500.02, -187500.02, -187500.02, -38770.66, 0.00, 0.00, 0.00
213, -187500.02, -187500.02, -187500.02, -187500.02, -187500.02, -187500.02, -187500.02, -38158.98, 0.00, 0.00, 0.00
214, -187500.02, -187500.02, -187500.02, -187500.02, -187500.02, -187500.02, -187500.02, -37727.15, 0.03, 0.87, 0.48
215, -187500.02, -187500.02, -187500.02, -187500.02, -187500.02, -187500.02, -187500.02, -38278.75, 0.00, 0.00, 0.00
216, -187500.02, -187500.02, -187500.02, -187500.02, -187500.02, -187500.02, -187500.02, -38784.88, 0.00, 0.00, 0.00
217, -187500.02, -187500.02, -187500.02, -187500.02, -187500.02, -187500.02, -187500.02, -38289.45, 0.00, 0.00, 0.00
218, -187500.02, -187500.02, -187500.02, -187500.02, -187500.02, -187500.02, -187500.02, -37717.47, 0.00, 0.00, 0.00
219, -187500.02, -187500.02, -187500.02, -187500.02, -187500.02, -187500.02, -187500.02, -38164.62, 0.00, 0.00, 0.00
220, -187500.02, -187500.02, -187500.02, -187500.02, -187500.02, -187500.02, -187500.02, -38811.05, 0.00, 0.00, 0.00
221, -187500.02, -187500.02, -187500.02, -187500.02, -187500.02, -187500.02, -187500.02, -38462.79, 0.00, 0.00, 0.00
222, -187500.02, -187500.02, -187500.02, -187500.02, -187500.02, -187500.02, -187500.02, -37745.77, 0.00, 0.00, 0.00
223, -187500.02, -187500.02, -187500.02, -187500.02, -187500.02, -187500.02, -187500.02, -38005.16, 0.00, 0.00, 0.00
224, -187500.02, -187500.02, -187500.02, -187500.02, -187500.02, -187500.02, -187500.02, -38726.96, 0.03, 0.88, 0.48
225, -187500.02, -187500.02, -187500.02, -187500.02, -187500.02, -187500.02, -187500.02, -38584.92, 0.00, 0.00, 0.00
226, -187500.02, -187500.02, -187500.02, -187500.02, -187500.02, -187500.02, -187500.02, -37858.63, 0.00, 0.00, 0.00
227, -187500.02, -187500.02, -187500.02, -187500.02, -187500.02, -187500.02, -187500.02, -37903.77, 0.00, 0.00, 0.00
228, -187500.02, -187500.02, -187500.02, -187500.02, -187500.02, -187500.02, -187500.02, -38628.73, 0.00, 0.00, 0.00
229, -187500.02, -187500.02, -187500.02, -187500.02, -187500.02, -187500.02, -187500.02, -38640.44, 0.00, 0.00, 0.00
230, -187500.02, -187500.02, -187500.02, -187500.02, -187500.02, -187500.02, -187500.02, -37923.69, 0.00, 0.00, 0.00
231, -187500.02, -187500.02, -187500.02, -187500.02, -187500.02, -187500.02, -187500.02, -37821.99, 0.00, 0.00, 0.00
232, -187500.02, -187500.02, -187500.02, -187500.02, -187500.02, -187500.02, -187500.02, -38558.03, 0.00, 0.00, 0.00
233, -187500.02, -187500.02, -187500.02, -187500.02, -187500.02, -187500.02, -187500.02, -38749.18, 0.00, 0.00, 0.00
234, -187500.02, -187500.02, -187500.02, -187500.02, -187500.02, -187500.02, -187500.02, -38043.45, 0.03, 0.87, 0.48
235, -187500.02, -187500.02, -187500.02, -187500.02, -187500.02, -187500.02, -187500.02, -37728.31, 0.00, 0.00, 0.00
236, -187500.02, -187500.02, -187500.02, -187500.02, -187500.02, -187500.02, -187500.02, -38388.05, 0.00, 0.00, 0.00
237, -187500.02, -187500.02, -187500.02, -187500.02, -187500.02, -187500.02, -187500.02, -38779.00, 0.00, 0.00, 0.00
238, -187500.02, -187500.02, -187500.02, -187500.02, -187500.02, -187500.02, -187500.02, -38193.70, 0.00, 0.00, 0.00
239, -187500.02, -187500.02, -187500.02, -187500.02, -187500.02, -187500.02, -187500.02, -37729.43, 0.00, 0.00, 0.00
240, -187500.02, -187500.02, -187500.02, -187500.02, -187500.02, -187500.02, -187500.02, -38277.63, 0.00, 0.00, 0.00
241, -187500.02, -187500.02, -187500.02, -187500.02, -187500.02, -187500.02, -187500.02, -38802.58, 0.00, 0.00, 0.00
242, -187500.02, -187500.02, -187500.02, -187500.02, -187500.02, -187500.02, -187500.02, -38331.86, 0.00, 0.00, 0.00
243, -187500.02, -187500.02, -187500.02, -187500.02, -187500.02, -187500.02, -187500.02, -37742.37, 0.00, 0.00, 0.00
244, -187500.02, -187500.02, -187500.02, -187500.02, -187500.02, -187500.02, -187500.02, -38139.47, 0.03, 0.88, 0.48
245, -187500.02, -187500.02, -187500.02, -187500.02, -187500.02, -187500.02, -187500.02, -38792.77, 0.00, 0.00, 0.00
246, -187500.02, -187500.02, -187500.02, -187500.02, -187500.02, -187500.02, -187500.02, -38494.80, 0.00, 0.00, 0.00
247, -187500.02, -187500.02, -187500.02, -187500.02, -187500.02, -187500.02, -187500.02, -37820.09, 0.00, 0.00, 0.00
248, -187500.02, -187500.02, -187500.02, -187500.02, -187500.02, -187500.02, -187500.02, -38023.16, 0.00, 0.00, 0.00
249, -187500.02, -187500.02, -187500.02, -187500.02, -187500.02, -187500.02, -187500.02, -38727.82, 0.00, 0.00, 0.00
250, -187500.02, -187500.02, -187500.02, -187500.02, -187500.02, -187500.02, -187500.02, -38585.10, 0.00, 0.00, 0.00
251, -187500.02, -187500.02, -187500.02, -187500.02, -187500.02, -187500.02, -187500.02, -37865.22, 0.00, 0.00, 0.00
252, -187500.02, -187500.02, -187500.02, -187500.02, -187500.02, -187500.02, -187500.02, -37912.22, 0.00, 0.00, 0.00
253, -187500.02, -187500.02, -187500.02, -187500.02, -187500.02, -187500.02, -187500.02, -38664.74, 0.00, 0.00, 0.00
254, -187500.02, -187500.02, -187500.02, -187500.02, -187500.02, -187500.02, -187500.02, -38722.77, 0.03, 0.88, 0.48
255, -187500.02, -187500.02, -187500.02, -187500.02, -187500.02, -187500.02, -187500.02, -37984.71, 0.00, 0.00, 0.00
20, -187500.02, -187500.02, -187500.02, -187500.02, -187500.02, -187500.02, -187500.02, -37909.05, 0.00, 0.00, 0.00
21, -187500.02, -187500.02, -187500.02, -187500.02, -187500.02, -187500.02, -187500.02, -37904.18, 0.00, 0.00, 0.00
22, -187500.02, -187500.02, -187500.02, -187500.02, -187500.02, -187500.02, -187500.02, -38658.75, 0.00, 0.00, 0.00
23, -187500.02, -187500.02, -187500.02, -187500.02, -187500.02, -187500.02, -187500.02, -38755.84, 0.00, 0.00, 0.00
24, -187500.02, -187500.02, -187500.02, -187500.02, -187500.02, -187500.02, -187500.02, -38032.88, 0.00, 0.00, 0.00
25, -187500.02, -187500.02, -187500.02, -187500.02, -187500.02, -187500.02, -187500.02, -37836.14, 0.00, 0.00, 0.00
26, -187500.02, -187500.02, -187500.02, -187500.02, -187500.02, -187500.02, -187500.02, -38534.77, 0.00, 0.00, 0.00
27, -187500.02, -187500.02, -187500.02, -187500.02, -187500.02, -187500.02, -187500.02, -38812.15, 0.00, 0.00, 0.00
28, -187500.02, -187500.02, -187500.02, -187500.02, -187500.02, -187500.02, -187500.02, -38168.71, 0.04, 0.88, 0.47
29, -187500.02, -187500.02, -187500.02, -187500.02, -187500.02, -187500.02, -187500.02, -37801.98, 0.00, 0.00, 0.00
30, -187500.02, -187500.02, -187500.02, -187500.02, -187500.02, -187500.02, -187500.02, -38422.71, 0.00, 0.00, 0.00
31, -187500.02, -187500.02, -187500.02, -187500.02, -187500.02, -187500.02, -187500.02, -38868.77, 0.00, 0.00, 0.00
32, -187500.02, -187500.02, -187500.02, -187500.02, -187500.02, -187500.02, -187500.02, -38316.88, 0.00, 0.00, 0.00
33, -187500.02, -187500.02, -187500.02, -187500.02, -187500.02, -187500.02, -187500.02, -37784.89, 0.00, 0.00, 0.00
34, -187500.02, -187500.02, -187500.02, -187500.02, -187500.02, -187500.02, -187500.02, -38306.80, 0.00, 0.00, 0.00
35, -187500.02, -187500.02, -187500.02, -187500.02, -187500.02, -187500.02, -187500.02, -38891.36, 0.00, 0.00, 0.00
36, -187500.02, -187500.02, -187500.02, -187500.02, -187500.02, -187500.02, -187500.02, -38464.42, 0.00, 0.00, 0.00
37, -187500.02, -187500.02, -187500.02, -187500.02, -187500.02, -187500.02, -187500.02, -37798.54, 0.04, 0.88, 0.47
38, -187500.02, -187500.02, -187500.02, -187500.02, -187500.02, -187500.02, -187500.02, -38138.96, 0.00, 0.00, 0.00
39, -187500.02, -187500.02, -187500.02, -187500.02, -187500.02, -187500.02, -187500.02, -38848.67, 0.00, 0.00, 0.00
40, -187500.02, -187500.02, -187500.02, -187500.02, -187500.02, -187500.02, -187500.02, -38617.31, 0.00, 0.00, 0.00
41, -187500.02, -187500.02, -187500.02, -187500.02, -187500.02, -187500.02, -187500.02, -37869.31, 0.00, 0.00, 0.00
42, -187500.02, -187500.02, -187500.02, -187500.02, -187500.02, -187500.02, -187400.14, -38012.87, 0.00, 0.00, 0.00
43, -187500.02, -187500.02, -187500.02, -187500.02, -187500.02, -187500.02, -187500.02, -38772.61, 0.00, 0.00, 0.00
44, -187500.02, -187500.02, -187500.02, -187500.02, -187500.02, -187500.02, -187500.02, -38724.78, 0.00, 0.00, 0.00
45, -187500.02, -187500.02, -187500.02, -187500.02, -187500.02, -187500.02, -187500.02, -37981.54, 0.00, 0.00, 0.00
46, -187500.02, -187500.02, -187500.02, -187500.02, -187500.02, -187500.02, -187215.33, -37945.46, 0.00, 0.00, 0.00
47, -187500.02, -187500.02, -187500.02, -187500.02, -187500.02, -187500.02, -187500.02, -38697.82, 0.04, 0.88, 0.46
48, -187500.02, -187500.02, -187500.02, -187500.02, -187500.02, -187500.02, -187500.02, -38844.98, 0.00, 0.00, 0.00
49, -187500.02, -187500.02, -187500.02, -187500.02, -187500.02, -187500.02, -187500.02, -38125.75, 0.00, 0.00, 0.00
50, -187500.02, -187500.02, -187500.02, -187500.02, -187500.02, -187500.02, -187170.08, -37866.00, 0.00, 0.00, 0.00
51, -187500.02, -187500.02, -187500.02, -187500.02, -187500.02, -187500.02, -187500.02, -38555.33, 0.00, 0.00, 0.00
52, -187500.02, -187500.02, -187500.02, -187500.02, -187500.02, -187500.02, -187500.02, -38879.34, 0.00, 0.00, 0.00
53, -187500.02, -187500.02, -187500.02, -187500.02, -187500.02, -187500.02, -187500.02, -38235.21, 0.00, 0.00, 0.00
54, -187500.02, -187500.02, -187500.02, -187500.02, -187500.02, -187500.02, -187189.73, -37829.77, 0.00, 0.00, 0.00
55, -187500.02, -187500.02, -187500.02, -187500.02, -187500.02, -187500.02, -187387.81, -38460.46, 0.00, 0.00, 0.00
56, -187500.02, -187500.02, -187500.02, -187500.02, -187500.02, -187500.02, -187500.02, -38951.31, 0.00, 0.00, 0.00
57, -187500.02, -187500.02, -187500.02, -187500.02, -187500.02, -187500.02, -187500.02, -38407.36, 0.03, 0.89, 0.46
58, -187500.02, -187500.02, -187500.02, -187500.02, -187500.02, -187500.02, -187342.77, -37850.64, 0.00, 0.00, 0.00
59, -187500.02, -187500.02, -187500.02, -187500.02, -187500.02, -187500.02, -186956.05, -38330.76, 0.00, 0.00, 0.00
60, -187500.02, -187500.02, -187500.02, -187500.02, -187500.02, -187500.02, -187500.02, -38960.63, 0.00, 0.00, 0.00
61, -187500.02, -187500.02, -187500.02, -187500.02, -187500.02, -187500.02, -187500.02, -38575.55, 0.00, 0.00, 0.00
62, -187500.02, -187500.02, -187500.02, -187500.02, -187500.02, -187500.02, -187500.02, -37883.66, 0.00, 0.00, 0.00
63, -187500.02, -187500.02, -187500.02, -187500.02, -187500.02, -187500.02, -186691.20, -38165.38, 0.00, 0.00, 0.00
64, -187500.02, -187500.02, -187500.02, -187500.02, -187500.02, -187500.02, -187500.02, -38863.91, 0.00, 0.00, 0.00
65, -187500.02, -187500.02, -187500.02, -187500.02, -187500.02, -187500.02, -187500.02, -38669.41, 0.00, 0.00, 0.00
66, -187500.02, -187500.02, -187500.02, -187500.02, -187500.02, -187500.02, -187500.02, -37952.81, 0.00, 0.00, 0.00
67, -187500.02, -187500.02, -187500.02, -187500.02, -187500.02, -187500.02, -186478.73, -38043.52, 0.03, 0.89, 0.46
68, -187500.02, -187500.02, -187500.02, -187500.02, -187500.02, -187500.02, -187500.02, -38787.47, 0.00, 0.00, 0.00
69, -187500.02, -187500.02, -187500.02, -187500.02, -187500.02, -187500.02, -187500.02, -38775.40, 0.00, 0.00, 0.00
70, -187500.02, -187500.02, -187500.02, -187500.02, -187500.02, -187500.02, -187500.02, -38044.79, 0.00, 0.00, 0.00
71, -187500.02, -187500.02, -187500.02, -187500.02, -187500.02, -187500.02, -186388.44, -37951.76, 0.00, 0.00, 0.00
72, -187500.02, -187500.02, -187500.02, -187500.02, -187500.02, -187500.02, -187500.02, -38685.53, 0.00, 0.00, 0.00
73, -187500.02, -187500.02, -187500.02, -187500.02, -187500.02, -187500.02, -187500.02, -38849.88, 0.00, 0.00, 0.00
74, -187500.02, -187500.02, -187500.02, -187500.02, -187500.02, -187500.02, -187500.02, -38133.33, 0.00, 0.00, 0.00
75, -187500.02, -187500.02, -187500.02, -187500.02, -187500.02, -187500.02, -186389.84, -37878.47, 0.00, 0.00, 0.00
76, -187500.02, -187500.02, -187500.02, -187500.02, -187500.02, -187500.02, -186991.56, -38554.14, 0.00, 0.00, 0.00
77, -187500.02, -187500.02, -187500.02, -187500.02, -187500.02, -187500.02, -187500.02, -38921.45, 0.03, 0.89, 0.46
78, -187500.02, -187500.02, -187500.02, -187500.02, -187500.02, -187500.02, -187500.02, -38293.95, 0.00, 0.00, 0.00
79, -187500.02, -187500.02, -187500.02, -187500.02, -187500.02, -187500.02, -186462.14, -37829.23, 0.00, 0.00, 0.00
80, -187500.02, -187500.02, -187500.02, -187500.02, -187500.02, -187500.02, -186557.08, -38423.18, 0.00, 0.00, 0.00
81, -187500.02, -187500.02, -187500.02, -187500.02, -187500.02, -187500.02, -187500.02, -38934.10, 0.00, 0.00, 0.00
82, -187500.02, -187500.02, -187500.02, -187500.02, -187500.02, -187500.02, -187500.02, -38420.34, 0.00, 0.00, 0.00
83, -187500.02, -187500.02, -187500.02, -187500.02, -187500.02, -187500.02, -186688.16, -37825.88, 0.00, 0.00, 0.00
84, -187500.02, -187500.02, -187500.02, -187500.02, -187500.02, -187500.02, -186217.52, -38260.95, 0.00, 0.00, 0.00
85, -187500.02, -187500.02, -187500.02, -187500.02, -187500.02, -187500.02, -187500.02, -38908.48, 0.00, 0.00, 0.00
86, -187500.02, -187500.02, -187500.02, -187500.02, -187500.02, -187500.02, -187500.02, -38565.86, 0.00, 0.00, 0.00
87, -187500.02, -187500.02, -187500.02, -187500.02, -187500.02, -187500.02, -186923.86, -37878.27, 0.03, 0.89, 0.47
88, -187500.02, -187500.02, -187500.02, -187500.02, -187500.02, -187500.02, -185929.34, -38164.95, 0.00, 0.00, 0.00
89, -187500.02, -187500.02, -187500.02, -187500.02, -187500.02, -187500.02, -187500.02, -38887.90, 0.00, 0.00, 0.00
90, -187500.02, -187500.02, -187500.02, -187500.02, -187500.02, -187500.02, -187500.02, -38727.66, 0.00, 0.00, 0.00
91, -187500.02, -187500.02, -187500.02, -187500.02, -187500.02, -187500.02, -187235.22, -37992.36, 0.00, 0.00, 0.00
92, -187500.02, -187500.02, -187500.02, -187500.02, -187500.02, -187500.02, -185759.55, -38049.73, 0.00, 0.00, 0.00
93, -187500.02, -187500.02, -187500.02, -187500.02, -187500.02, -187500.02, -187222.52, -38801.20, 0.00, 0.00, 0.00
94, -187500.02, -187500.02, -187500.02, -187500.02, -187500.02, -187500.02, -187500.02, -38828.67, 0.00, 0.00, 0.00
95, -187500.02, -187500.02, -187500.02, -187500.02, -187500.02, -187500.02, -187478.25, -38073.34, 0.00, 0.00, 0.00
96, -187500.02, -187500.02, -187500.02, -187500.02, -187500.02, -187500.02, -185691.20, -37967.99, 0.00, 0.00, 0.00
97, -187500.02, -187500.02, -187500.02, -187500.02, -187500.02, -187500.02, -186693.59, -38690.53, 0.04, 0.89, 0.45
98, -187500.02, -187500.02, -187500.02, -187500.02, -187500.02, -187500.02, -187500.02, -38912.91, 0.00, 0.00, 0.00
99, -187500.02, -187500.02, -187500.02, -187500.02, -187500.02, -187500.02, -187500.02, -38219.78, 0.00, 0.00, 0.00
100, -187500.02, -187500.02, -187500.02, -187500.02, -187500.02, -187500.02, -185714.25, -37863.72, 0.00, 0.00, 0.00
101, -187500.02, -187500.02, -187500.02, -187500.02, -187500.02, -187500.02, -186204.47, -38515.79, 0.00, 0.00, 0.00
102, -187500.02, -187500.02, -187500.02, -187500.02, -187500.02, -187500.02, -187500.02, -38933.07, 0.00, 0.00, 0.00
103, -187500.02, -187500.02, -187500.02, -187500.02, -187500.02, -187500.02, -187500.02, -38341.71, 0.00, 0.00, 0.00
104, -187500.02, -187500.02, -187500.02, -187500.02, -187500.02, -187500.02, -185882.11, -37854.78, 0.00, 0.00, 0.00
105, -187500.02, -187500.02, -187500.02, -187500.02, -187500.02, -187500.02, -185844.63, -38404.92, 0.00, 0.00, 0.00
106, -187500.02, -187500.02, -187500.02, -187500.02, -187500.02, -187500.02, -187500.02, -38955.56, 0.00, 0.00, 0.00
107, -187500.02, -187500.02, -187500.02, -187500.02, -187500.02, -187500.02, -187500.02, -38454.05, 0.04, 0.89, 0.45
108, -187500.02, -187500.02, -187500.02, -187500.02, -187500.02, -187500.02, -186139.17, -37836.94, 0.00, 0.00, 0.00
109, -187500.02, -187500.02, -187500.02, -187500.02, -187500.02, -187500.02, -185568.73, -38263.04, 0.00, 0.00, 0.00
110, -187500.02, -187500.02, -187500.02, -187500.02, -187500.02, -187500.02, -187500.02, -38935.71, 0.00, 0.00, 0.00
111, -187500.02, -187500.02, -187500.02, -187500.02, -187500.02, -187500.02, -187500.02, -38635.68, 0.00, 0.00, 0.00
112, -187500.02, -187500.02, -187500.02, -187500.02, -187500.02, -187500.02, -186499.86, -37911.62, 0.00, 0.00, 0.00
113, -187500.02, -187500.02, -187500.02, -187500.02, -187500.02, -187500.02, -185372.69, -38095.21, 0.00, 0.00, 0.00
114, -187500.02, -187500.02, -187500.02, -187500.02, -187500.02, -187500.02, -187172.36, -38850.32, 0.00, 0.00, 0.00
115, -187500.02, -187500.02, -187500.02, -187500.02, -187500.02, -187500.02, -187500.02, -38733.45, 0.00, 0.00, 0.00
116, -187500.02, -187500.02, -187500.02, -187500.02, -187500.02, -187500.02, -186895.42, -37990.86, 0.00, 0.00, 0.00
117, -187500.02, -187500.02, -187500.02, -187500.02, -187500.02, -187500.02, -185343.20, -38005.63, 0.04, 0.89, 0.45
118, -187500.02, -187500.02, -187500.02, -187500.02, -187500.02, -187500.02, -186768.72, -38757.14, 0.00, 0.00, 0.00
119, -187500.02, -187500.02, -187500.02, -187500.02, -187500.02, -187500.02, -187500.02, -38825.02, 0.00, 0.00, 0.00
120, -187500.02, -187500.02, -187500.02, -187500.02, -187500.02, -187500.02, -187248.27, -38072.60, 0.00, 0.00, 0.00
121, -187500.02, -187500.02, -187500.02, -187500.02, -187500.02, -187500.02, -185394.39, -37911.51, 0.00, 0.00, 0.00
122, -187500.02, -187500.02, -187500.02, -187500.02, -187500.02, -187500.02, -186369.38, -38645.52, 0.00, 0.00, 0.00
123, -187500.02, -187500.02, -187500.02, -187500.02, -187500.02, -187500.02, -187500.02, -38897.78, 0.00, 0.00, 0.00
124, -187500.02, -187500.02, -187500.02, -187500.02, -187500.02, -187500.02, -187500.02, -38211.91, 0.00, 0.00, 0.00
125, -187500.02, -187500.02, -187500.02, -187500.02, -187500.02, -187500.02, -185552.98, -37864.68, 0.00, 0.00, 0.00
126, -187500.02, -187500.02, -187500.02, -187500.02, -187500.02, -187500.02, -185978.48, -38512.37, 0.04, 0.89, 0.46
127, -187500.02, -187500.02, -187500.02, -187500.02, -187500.02, -187500.02, -187500.02, -38944.76, 0.00, 0.00, 0.00
128, -187500.02, -187500.02, -187500.02, -187500.02, -187500.02, -187500.02, -187500.02, -38361.05, 0.00, 0.00, 0.00
129, -187500.02, -187500.02, -187500.02, -187500.02, -187500.02, -187500.02, -185823.77, -37847.63, 0.00, 0.00, 0.00
130, -187500.02, -187500.02, -187500.02, -187500.02, -187500.02, -187500.02, -185688.08, -38376.09, 0.00, 0.00, 0.00
131, -187500.02, -187500.02, -187500.02, -187500.02, -187500.02, -187500.02, -187500.02, -38954.98, 0.00, 0.00, 0.00
132, -187500.02, -187500.02, -187500.02, -187500.02, -187500.02, -187500.02, -187500.02, -38523.50, 0.00, 0.00, 0.00
133, -187500.02, -187500.02, -187500.02, -187500.02, -187500.02, -187500.02, -186184.14, -37879.19, 0.00, 0.00, 0.00
134, -187500.02, -187500.02, -187500.02, -187500.02, -187500.02, -187500.02, -185486.09, -38243.86, 0.00, 0.00, 0.00
135, -187500.02, -187500.02, -187500.02, -187500.02, -187500.02, -187500.02, -187477.23, -38930.55, 0.00, 0.00, 0.00
136, -187500.02, -187500.02, -187500.02, -187500.02, -187500.02, -187500.02, -187500.02, -38649.16, 0.04, 0.89, 0.46
137, -187500.02, -187500.02, -187500.02, -187500.02, -187500.02, -187500.02, -186497.41, -37944.12, 0.00, 0.00, 0.00
138, -187500.02, -187500.02, -187500.02, -187500.02, -187500.02, -187500.02, -185323.25, -38116.79, 0.00, 0.00, 0.00
139, -187500.02, -187500.02, -187500.02, -187500.02, -187500.02, -187500.02, -187069.63, -38860.12, 0.00, 0.00, 0.00
140, -187500.02, -187500.02, -187500.02, -187500.02, -187500.02, -187500.02, -187500.02, -38771.80, 0.00, 0.00, 0.00
141, -187500.02, -187500.02, -187500.02, -187500.02, -187500.02, -187500.02, -186901.66, -38033.82, 0.00, 0.00, 0.00
142, -187500.02, -187500.02, -187500.02, -187500.02, -187500.02, -187500.02, -185276.70, -38012.20, 0.00, 0.00, 0.00
143, -187500.02, -187500.02, -187500.02, -187500.02, -187500.02, -187500.02, -186607.75, -38754.48, 0.00, 0.00, 0.00
144, -187500.02, -187500.02, -187500.02, -187500.02, -187500.02, -187500.02, -187500.02, -38869.01, 0.00, 0.00, 0.00
145, -187500.02, -187500.02, -187500.02, -187500.02, -187500.02, -187500.02, -187276.25, -38142.94, 0.00, 0.00, 0.00
146, -187500.02, -187500.02, -187500.02, -187500.02, -187500.02, -187500.02, -185349.67, -37924.32, 0.05, 0.88, 0.46
147, -187500.02, -187500.02, -187500.02, -187500.02, -187500.02, -187500.02, -186197.05, -38646.77, 0.00, 0.00, 0.00
148, -187500.02, -187500.02, -187500.02, -187500.02, -187500.02, -187500.02, -187500.02, -38951.73, 0.00, 0.00, 0.00
149, -187500.02, -187500.02, -187500.02, -187500.02, -187500.02, -187500.02, -187500.02, -38287.13, 0.00, 0.00, 0.00
150, -187500.02, -187500.02, -187500.02, -187500.02, -187500.02, -187500.02, -185541.59, -37892.00, 0.00, 0.00, 0.00
151, -187500.02, -187500.02, -187500.02, -187500.02, -187500.02, -187500.02, -185866.63, -38530.81, 0.00, 0.00, 0.00
152, -187500.02, -187500.02, -187500.02, -187500.02, -187500.02, -187500.02, -187500.02, -38993.78, 0.00, 0.00, 0.00
153, -187500.02, -187500.02, -187500.02, -187500.02, -187500.02, -187500.02, -187500.02, -38427.99, 0.00, 0.00, 0.00
154, -187500.02, -187500.02, -187500.02, -187500.02, -187500.02, -187500.02, -185762.02, -37890.65, 0.00, 0.00, 0.00
155, -187500.02, -187500.02, -187500.02, -187500.02, -187500.02, -187500.02, -185516.75, -38406.62, 0.00, 0.00, 0.00
156, -187500.02, -187500.02, -187500.02, -187500.02, -187500.02, -187500.02, -187500.02, -39027.66, 0.05, 0.88, 0.47
157, -187500.02, -187500.02, -187500.02, -187500.02, -187500.02, -187500.02, -187500.02, -38600.10, 0.00, 0.00, 0.00
158, -187500.02, -187500.02, -187500.02, -187500.02, -187500.02, -187500.02, -186140.72, -37920.49, 0.00, 0.00, 0.00
159, -187500.02, -187500.02, -187500.02, -187500.02, -187500.02, -187500.02, -185343.59, -38240.39, 0.00, 0.00, 0.00
160, -187500.02, -187500.02, -187500.02, -187500.02, -187500.02, -187500.02, -187276.45, -38933.72, 0.00, 0.00, 0.00
161, -187500.02, -187500.02, -187500.02, -187500.02, -187500.02, -187500.02, -187500.02, -38716.13, 0.00, 0.00, 0.00
162, -187500.02, -187500.02, -187500.02, -187500.02, -187500.02, -187500.02, -186519.31, -37981.29, 0.00, 0.00, 0.00
163, -187500.02, -187500.02, -187500.02, -187500.02, -187500.02, -187500.02, -185239.63, -38129.62, 0.00, 0.00, 0.00
164, -187500.02, -187500.02, -187500.02, -187500.02, -187500.02, -187500.02, -186892.11, -38881.55, 0.00, 0.00, 0.00
165, -187500.02, -187500.02, -187500.02, -187500.02, -187500.02, -187500.02, -187500.02, -38851.44, 0.00, 0.00, 0.00
166, -187500.02, -187500.02, -187500.02, -187500.02, -187500.02, -187500.02, -186930.14, -38089.56, 0.04, 0.88, 0.47
167, -187500.02, -187500.02, -187500.02, -187500.02, -187500.02, -187500.02, -185230.73, -38017.50, 0.00, 0.00, 0.00
168, -187500.02, -187500.02, -187500.02, -187500.02, -187500.02, -187500.02, -186465.22, -38780.92, 0.00, 0.00, 0.00
169, -187500.02, -187500.02, -187500.02, -187500.02, -187500.02, -187500.02, -187500.02, -38945.05, 0.00, 0.00, 0.00
170, -187500.02, -187500.02, -187500.02, -187500.02, -187500.02, -187500.02, -187258.03, -38227.05, 0.00, 0.00, 0.00
171, -187500.02, -187500.02, -187500.02, -187500.02, -187500.02, -187500.02, -185270.39, -37966.70, 0.00, 0.00, 0.00
172, -187500.02, -187500.02, -187500.02, -187500.02, -187500.02, -187500.02, -186040.63, -38662.95, 0.00, 0.00, 0.00
173, -187500.02, -187500.02, -187500.02, -187500.02, -187500.02, -187500.02, -187500.02, -38992.77, 0.00, 0.00, 0.00
174, -187500.02, -187500.02, -187500.02, -187500.02, -187500.02, -187500.02, -187500.02, -38339.52, 0.00, 0.00, 0.00
175, -187500.02, -187500.02, -187500.02, -187500.02, -187500.02, -187500.02, -185492.52, -37919.71, 0.00, 0.00, 0.00
176, -187500.02, -187500.02, -187500.02, -187500.02, -187500.02, -187500.02, -185690.89, -38512.08, 0.04, 0.88, 0.46
177, -187500.02, -187500.02, -187500.02, -187500.02, -187500.02, -187500.02, -187500.02, -39022.08, 0.00, 0.00, 0.00
178, -187500.02, -187500.02, -187500.02, -187500.02, -187500.02, -187500.02, -187500.02, -38509.46, 0.00, 0.00, 0.00
179, -187500.02, -187500.02, -187500.02, -187500.02, -187500.02, -187500.02, -185788.83, -37925.30, 0.00, 0.00, 0.00
180, -187500.02, -187500.02, -187500.02, -187500.02, -187500.02, -187500.02, -185409.97, -38375.06, 0.00, 0.00, 0.00
181, -187500.02, -187500.02, -187500.02, -187500.02, -187500.02, -187500.02, -187500.02, -39018.41, 0.00, 0.00, 0.00
182, -187500.02, -187500.02, -187500.02, -187500.02, -187500.02, -187500.02, -187500.02, -38650.08, 0.00, 0.00, 0.00
183, -187500.02, -187500.02, -187500.02, -187500.02, -187500.02, -187500.02, -186181.11, -37978.38, 0.00, 0.00, 0.00
184, -187500.02, -187500.02, -187500.02, -187500.02, -187500.02, -187500.02, -185295.27, -38268.71, 0.00, 0.00, 0.00
185, -187500.02, -187500.02, -187500.02, -187500.02, -187500.02, -187500.02, -187185.06, -38969.84, 0.00, 0.00, 0.00
186, -187500.02, -187500.02, -187500.02, -187500.02, -187500.02, -187500.02, -187500.02, -38763.45, 0.04, 0.89, 0.47
187, -187500.02, -187500.02, -187500.02, -187500.02, -187500.02, -187500.02, -186555.77, -38027.42, 0.00, 0.00, 0.00
188, -187500.02, -187500.02, -187500.02, -187500.02, -187500.02, -187500.02, -185196.06, -38130.36, 0.00, 0.00, 0.00
189, -187500.02, -187500.02, -187500.02, -187500.02, -187500.02, -187500.02, -186784.52, -38874.96, 0.00, 0.00, 0.00
190, -187500.02, -187500.02, -187500.02, -187500.02, -187500.02, -187500.02, -187500.02, -38851.49, 0.00, 0.00, 0.00
191, -187500.02, -187500.02, -187500.02, -187500.02, -187500.02, -187500.02, -186961.52, -38106.66, 0.00, 0.00, 0.00
192, -187500.02, -187500.02, -187500.02, -187500.02, -187500.02, -187500.02, -185222.86, -38021.46, 0.00, 0.00, 0.00
193, -187500.02, -187500.02, -187500.02, -187500.02, -187500.02, -187500.02, -186371.72, -38772.59, 0.00, 0.00, 0.00
194, -187500.02, -187500.02, -187500.02, -187500.02, -187500.02, -187500.02, -187500.02, -38936.36, 0.00, 0.00, 0.00
195, -187500.02, -187500.02, -187500.02, -187500.02, -187500.02, -187500.02, -187308.03, -38221.82, 0.00, 0.00, 0.00
196, -187500.02, -187500.02, -187500.02, -187500.02, -187500.02, -187500.02, -185310.91, -37945.48, 0.04, 0.88, 0.46
197, -187500.02, -187500.02, -187500.02, -187500.02, -187500.02, -187500.02, -185976.95, -38649.29, 0.00, 0.00, 0.00
198, -187500.02, -187500.02, -187500.02, -187500.02, -187500.02, -187500.02, -187500.02, -39006.61, 0.00, 0.00, 0.00
199, -187500.02, -187500.02, -187500.02, -187500.02, -187500.02, -187500.02, -187500.02, -38372.63, 0.00, 0.00, 0.00
200, -187500.02, -187500.02, -187500.02, -187500.02, -187500.02, -187500.02, -185594.22, -37930.04, 0.00, 0.00, 0.00
201, -187500.02, -187500.02, -187500.02, -187500.02, -187500.02, -187500.02, -185699.72, -38510.54, 0.00, 0.00, 0.00
202, -187500.02, -187500.02, -187500.02, -187500.02, -187500.02, -187500.02, -187500.02, -39043.07, 0.00, 0.00, 0.00
203, -187500.02, -187500.02, -187500.02, -187500.02, -187500.02, -187500.02, -187500.02, -38528.68, 0.00, 0.00, 0.00
204, -187500.02, -187500.02, -187500.02, -187500.02, -187500.02, -187500.02, -185949.61, -37913.74, 0.00, 0.00, 0.00
205, -187500.02, -187500.02, -187500.02, -187500.02, -187500.02, -187500.02, -185492.77, -38341.09, 0.00, 0.00, 0.00
206, -187500.02, -187500.02, -187500.02, -187500.02, -187500.02, -187500.02, -187500.02, -38992.82, 0.03, 0.88, 0.46
207, -187500.02, -187500.02, -187500.02, -187500.02, -187500.02, -187500.02, -187500.02, -38648.89, 0.00, 0.00, 0.00
208, -187500.02, -187500.02, -187500.02, -187500.02, -187500.02, -187500.02, -186322.86, -37960.73, 0.00, 0.00, 0.00
209, -187500.02, -187500.02, -187500.02, -187500.02, -187500.02, -187500.02, -185358.11, -38227.94, 0.00, 0.00, 0.00
210, -187500.02, -187500.02, -187500.02, -187500.02, -187500.02, -187500.02, -187199.30, -38948.54, 0.00, 0.00, 0.00
211, -187500.02, -187500.02, -187500.02, -187500.02, -187500.02, -187500.02, -187500.02, -38787.74, 0.00, 0.00, 0.00
212, -187500.02, -187500.02, -187500.02, -187500.02, -187500.02, -187500.02, -186759.34, -38053.89, 0.00, 0.00, 0.00
213, -187500.02, -187500.02, -187500.02, -187500.02, -187500.02, -187500.02, -185335.34, -38100.00, 0.00, 0.00, 0.00
214, -187500.02, -187500.02, -187500.02, -187500.02, -187500.02, -187500.02, -186826.84, -38833.34, 0.00, 0.00, 0.00
215, -187500.02, -187500.02, -187500.02, -187500.02, -187500.02, -187500.02, -187500.02, -38860.65, 0.03, 0.88, 0.46
216, -187500.02, -187500.02, -187500.02, -187500.02, -187500.02, -187500.02, -187151.02, -38141.73, 0.00, 0.00, 0.00
217, -187500.02, -187500.02, -187500.02, -187500.02, -187500.02, -187500.02, -185354.31, -38025.43, 0.00, 0.00, 0.00
218, -187500.02, -187500.02, -187500.02, -187500.02, -187500.02, -187500.02, -186409.58, -38750.46, 0.00, 0.00, 0.00
219, -187500.02, -187500.02, -187500.02, -187500.02, -187500.02, -187500.02, -187500.02, -38966.20, 0.00, 0.00, 0.00
220, -187500.02, -187500.02, -187500.02, -187500.02, -187500.02, -187500.02, -187500.02, -38270.23, 0.00, 0.00, 0.00
221, -187500.02, -187500.02, -187500.02, -187500.02, -187500.02, -187500.02, -185484.77, -37966.31, 0.00, 0.00, 0.00
222, -187500.02, -187500.02, -187500.02, -187500.02, -187500.02, -187500.02, -186023.97, -38625.36, 0.00, 0.00, 0.00
223, -187500.02, -187500.02, -187500.02, -187500.02, -187500.02, -187500.02, -187500.02, -38993.42, 0.00, 0.00, 0.00
224, -187500.02, -187500.02, -187500.02, -187500.02, -187500.02, -187500.02, -187500.02, -38397.30, 0.00, 0.00, 0.00
225, -187500.02, -187500.02, -187500.02, -187500.02, -187500.02, -187500.02, -185716.34, -37933.95, 0.03, 0.88, 0.46
226, -187500.02, -187500.02, -187500.02, -187500.02, -187500.02, -187500.02, -185667.19, -38473.39, 0.00, 0.00, 0.00
227, -187500.02, -187500.02, -187500.02, -187500.02, -187500.02, -187500.02, -187500.02, -39021.14, 0.00, 0.00, 0.00
228, -187500.02, -187500.02, -187500.02, -187500.02, -187500.02, -187500.02, -187500.02, -38540.04, 0.00, 0.00, 0.00
229, -187500.02, -187500.02, -187500.02, -187500.02, -187500.02, -187500.02, -185966.66, -37927.04, 0.00, 0.00, 0.00
230, -187500.02, -187500.02, -187500.02, -187500.02, -187500.02, -187500.02, -185363.22, -38325.93, 0.00, 0.00, 0.00
231, -187500.02, -187500.02, -187500.02, -187500.02, -187500.02, -187500.02, -187390.56, -39004.60, 0.00, 0.00, 0.00
232, -187500.02, -187500.02, -187500.02, -187500.02, -187500.02, -187500.02, -187500.02, -38705.40, 0.00, 0.00, 0.00
233, -187500.02, -187500.02, -187500.02, -187500.02, -187500.02, -187500.02, -186315.23, -37986.16, 0.00, 0.00, 0.00
234, -187500.02, -187500.02, -187500.02, -187500.02, -187500.02, -187500.02, -185192.94, -38195.04, 0.00, 0.00, 0.00
235, -187500.02, -187500.02, -187500.02, -187500.02, -187500.02, -187500.02, -186963.17, -38940.43, 0.03, 0.88, 0.46
236, -187500.02, -187500.02, -187500.02, -187500.02, -187500.02, -187500.02, -187500.02, -38825.61, 0.00, 0.00, 0.00
237, -187500.02, -187500.02, -187500.02, -187500.02, -187500.02, -187500.02, -186697.44, -38074.79, 0.00, 0.00, 0.00
238, -187500.02, -187500.02, -187500.02, -187500.02, -187500.02, -187500.02, -185150.88, -38100.38, 0.00, 0.00, 0.00
239, -187500.02, -187500.02, -187500.02, -187500.02, -187500.02, -187500.02, -186568.33, -38872.25, 0.00, 0.00, 0.00
240, -187500.02, -187500.02, -187500.02, -187500.02, -187500.02, -187500.02, -187500.02, -38927.71, 0.00, 0.00, 0.00
241, -187500.02, -187500.02, -187500.02, -187500.02, -187500.02, -187500.02, -187057.14, -38154.96, 0.00, 0.00, 0.00
242, -187500.02, -187500.02, -187500.02, -187500.02, -187500.02, -187500.02, -185194.28, -37989.71, 0.00, 0.00, 0.00
243, -187500.02, -187500.02, -187500.02, -187500.02, -187500.02, -187500.02, -186139.33, -38714.65, 0.00, 0.00, 0.00
244, -187500.02, -187500.02, -187500.02, -187500.02, -187500.02, -187500.02, -187500.02, -38979.23, 0.00, 0.00, 0.00
245, -187500.02, -187500.02, -187500.02, -187500.02, -187500.02, -187500.02, -187449.45, -38320.61, 0.03, 0.89, 0.46
246, -187500.02, -187500.02, -187500.02, -187500.02, -187500.02, -187500.02, -185402.23, -37974.76, 0.00, 0.00, 0.00
247, -187500.02, -187500.02, -187500.02, -187500.02, -187500.02, -187500.02, -185814.83, -38607.45, 0.00, 0.00, 0.00
248, -187500.02, -187500.02, -187500.02, -187500.02, -187500.02, -187500.02, -187500.02, -39033.68, 0.00, 0.00, 0.00
249, -187500.02, -187500.02, -187500.02, -187500.02, -187500.02, -187500.02, -187500.02, -38445.60, 0.00, 0.00, 0.00
250, -187500.02, -187500.02, -187500.02, -187500.02, -187500.02, -187500.02, -185682.34, -37936.63, 0.00, 0.00, 0.00
251, -187500.02, -187500.02, -187500.02, -187500.02, -187500.02, -187500.02, -185536.38, -38454.32, 0.00, 0.00, 0.00
252, -187500.02, -187500.02, -187500.02, -187500.02, -187500.02, -187500.02, -187500.02, -39033.01, 0.00, 0.00, 0.00
253, -187500.02, -187500.02, -187500.02, -187500.02, -187500.02, -187500.02, -187500.02, -38591.80, 0.00, 0.00, 0.00
254, -187500.02, -187500.02, -187500.02, -187500.02, -187500.02, -187500.02, -186016.33, -37934.51, 0.00, 0.00, 0.00
255, -187500.02, -187500.02, -187500.02, -187500.02, -187500.02, -187500.02, -185297.23, -38296.41, 0.03, 0.88, 0.47
0, -187500.02, -187500.02, -187500.02, -187500.02, -187500.02, -187500.02, -187283.30, -38987.21, 0.00, 0.00, 0.00
1, -187500.02, -187500.02, -187500.02, -187500.02, -187500.02, -187500.02, -187500.02, -38722.52, 0.00, 0.00, 0.00
2, -187500.02, -187500.02, -187500.02, -187500.02, -187500.02, -187500.02, -186367.66, -38021.28, 0.00, 0.00, 0.00
3, -187500.02, -187500.02, -187500.02, -187500.02, -187500.02, -187500.02, -185179.97, -38204.58, 0.00, 0.00, 0.00
4, -187500.02, -187500.02, -187500.02, -187500.02, -187500.02, -187500.02, -186909.02, -38962.38, 0.00, 0.00, 0.00
5, -187500.02, -187500.02, -187500.02, -187500.02, -187500.02, -187500.02, -187500.02, -38870.82, 0.00, 0.00, 0.00
6, -187500.02, -187500.02, -187500.02, -187500.02, -187500.02, -187500.02, -186769.58, -38121.43, 0.00, 0.00, 0.00
7, -187500.02, -187500.02, -187500.02, -187500.02, -187500.02, -187500.02, -185148.75, -38082.21, 0.00, 0.00, 0.00
8, -187500.02, -187500.02, -187500.02, -187500.02, -187500.02, -187500.02, -186472.55, -38834.81, 0.00, 0.00, 0.00
9, -187500.02, -187500.02, -187500.02, -187500.02, -187500.02, -187500.02, -187500.02, -38954.57, 0.04, 0.88, 0.47
10, -187500.02, -187500.02, -187500.02, -187500.02, -187500.02, -187500.02, -187180.45, -38229.71, 0.00, 0.00, 0.00
11, -187500.02, -187500.02, -187500.02, -187500.02, -187500.02, -187500.02, -185259.36, -38018.80, 0.00, 0.00, 0.00
12, -187500.02, -187500.02, -187500.02, -187500.02, -187500.02, -187500.02, -186070.08, -38725.00, 0.00, 0.00, 0.00
13, -187500.02, -187500.02, -187500.02, -187500.02, -187500.02, -187500.02, -187500.02, -39025.34, 0.00, 0.00, 0.00
14, -187500.02, -187500.02, -187500.02, -187500.02, -187500.02, -187500.02, -187500.02, -38383.18, 0.00, 0.00, 0.00
15, -187500.02, -187500.02, -187500.02, -187500.02, -187500.02, -187500.02, -185411.64, -37993.96, 0.00, 0.00, 0.00
16, -187500.02, -187500.02, -187500.02, -187500.02, -187500.02, -187500.02, -185698.83, -38615.57, 0.00, 0.00, 0.00
17, -187500.02, -187500.02, -187500.02, -187500.02, -187500.02, -187500.02, -187500.02, -39098.81, 0.00, 0.00, 0.00
18, -187500.02, -187500.02, -187500.02, -187500.02, -187500.02, -187500.02, -187500.02, -38545.56, 0.00, 0.00, 0.00
19, -187500.02, -187500.02, -187500.02, -187500.02, -187500.02, -187500.02, -185646.94, -37987.79, 0.03, 0.88, 0.47
20, -187500.02, -187500.02, -187500.02, -187500.02, -187500.02, -187500.02, -185425.45, -38484.90, 0.00, 0.00, 0.00
21, -187500.02, -187500.02, -187500.02, -187500.02, -187500.02, -187500.02, -187500.02, -39077.55, 0.00, 0.00, 0.00
22, -187500.02, -187500.02, -187500.02, -187500.02, -187500.02, -187500.02, -187500.02, -38677.93, 0.00, 0.00, 0.00
23, -187500.02, -187500.02, -187500.02, -187500.02, -187500.02, -187500.02, -185983.77, -38010.97, 0.00, 0.00, 0.00
24, -187500.02, -187500.02, -187500.02, -187500.02, -187500.02, -187500.02, -185175.81, -38326.42, 0.00, 0.00, 0.00
25, -187500.02, -187500.02, -187500.02, -187500.02, -187500.02, -187500.02, -187085.72, -39024.60, 0.00, 0.00, 0.00
26, -187500.02, -187500.02, -187500.02, -187500.02, -187500.02, -187500.02, -187500.02, -38810.52, 0.00, 0.00, 0.00
27, -187500.02, -187500.02, -187500.02, -187500.02, -187500.02, -187500.02, -186315.44, -38096.63, 0.00, 0.00, 0.00
28, -187500.02, -187500.02, -187500.02, -187500.02, -187500.02, -187500.02, -185019.84, -38229.55, 0.00, 0.00, 0.00
29, -187500.02, -187500.02, -187500.02, -187500.02, -187500.02, -187500.02, -186675.11, -38977.13, 0.03, 0.88, 0.47
30, -187500.02, -187500.02, -187500.02, -187500.02, -187500.02, -187500.02, -187500.02, -38937.39, 0.00, 0.00, 0.00
31, -187500.02, -187500.02, -187500.02, -187500.02, -187500.02, -187500.02, -186794.69, -38201.12, 0.00, 0.00, 0.00
32, -187500.02, -187500.02, -187500.02, -187500.02, -187500.02, -187500.02, -185164.22, -38131.63, 0.00, 0.00, 0.00
33, -187500.02, -187500.02, -187500.02, -187500.02, -187500.02, -187500.02, -186423.63, -38871.89, 0.00, 0.00, 0.00
34, -187500.02, -187500.02, -187500.02, -187500.02, -187500.02, -187500.02, -187500.02, -39021.47, 0.00, 0.00, 0.00
35, -187500.02, -187500.02, -187500.02, -187500.02, -187500.02, -187500.02, -187304.69, -38306.08, 0.00, 0.00, 0.00
36, -187500.02, -187500.02, -187500.02, -187500.02, -187500.02, -187500.02, -185385.39, -38055.86, 0.00, 0.00, 0.00
37, -187500.02, -187500.02, -187500.02, -187500.02, -187500.02, -187500.02, -186147.36, -38740.87, 0.00, 0.00, 0.00
38, -187500.02, -187500.02, -187500.02, -187500.02, -187500.02, -187500.02, -187500.02, -39065.89, 0.03, 0.88, 0.46
39, -187500.02, -187500.02, -187500.02, -187500.02, -187500.02, -187500.02, -187500.02, -38416.41, 0.00, 0.00, 0.00
40, -187500.02, -187500.02, -187500.02, -187500.02, -187500.02, -187500.02, -185621.44, -38014.62, 0.00, 0.00, 0.00
41, -187500.02, -187500.02, -187500.02, -187500.02, -187500.02, -187500.02, -185855.22, -38628.77, 0.00, 0.00, 0.00
42, -187500.02, -187500.02, -187500.02, -187500.02, -187500.02, -187500.02, -187500.02, -39090.43, 0.00, 0.00, 0.00
43, -187500.02, -187500.02, -187500.02, -187500.02, -187500.02, -187500.02, -187500.02, -38567.62, 0.00, 0.00, 0.00
44, -187500.02, -187500.02, -187500.02, -187500.02, -187500.02, -187500.02, -185933.34, -38022.82, 0.00, 0.00, 0.00
45, -187500.02, -187500.02, -187500.02, -187500.02, -187500.02, -187500.02, -185566.23, -38464.67, 0.00, 0.00, 0.00
46, -187500.02, -187500.02, -187500.02, -187500.02, -187500.02, -187500.02, -187500.02, -39078.38, 0.00, 0.00, 0.00
47, -187500.02, -187500.02, -187500.02, -187500.02, -187500.02, -187500.02, -187500.02, -38713.15, 0.00, 0.00, 0.00
48, -187500.02, -187500.02, -187500.02, -187500.02, -187500.02, -187500.02, -186234.91, -38033.66, 0.03, 0.88, 0.47
49, -187500.02, -187500.02, -187500.02, -187500.02, -187500.02, -187500.02, -185350.30, -38335.90, 0.00, 0.00, 0.00
50, -187500.02, -187500.02, -187500.02, -187500.02, -187500.02, -187500.02, -187247.02, -39036.94, 0.00, 0.00, 0.00
51, -187500.02, -187500.02, -187500.02, -187500.02, -187500.02, -187500.02, -187500.02, -38829.79, 0.00, 0.00, 0.00
52, -187500.02, -187500.02, -187500.02, -187500.02, -187500.02, -187500.02, -186629.89, -38116.65, 0.00, 0.00, 0.00
53, -187500.02, -187500.02, -187500.02, -187500.02, -187500.02, -187500.02, -185282.33, -38223.74, 0.00, 0.00, 0.00
54, -187500.02, -187500.02, -187500.02, -187500.02, -187500.02, -187500.02, -186842.52, -38967.76, 0.00, 0.00, 0.00
55, -187500.02, -187500.02, -187500.02, -187500.02, -187500.02, -187500.02, -187500.02, -38963.49, 0.00, 0.00, 0.00
56, -187500.02, -187500.02, -187500.02, -187500.02, -187500.02, -187500.02, -187041.16, -38241.26, 0.00, 0.00, 0.00
57, -187500.02, -187500.02, -187500.02, -187500.02, -187500.02, -187500.02, -185321.59, -38134.31, 0.00, 0.00, 0.00
58, -187500.02, -187500.02, -187500.02, -187500.02, -187500.02, -187500.02, -186442.84, -38835.66, 0.03, 0.88, 0.47
59, -187500.02, -187500.02, -187500.02, -187500.02, -187500.02, -187500.02, -187500.02, -39017.36, 0.00, 0.00, 0.00
60, -187500.02, -187500.02, -187500.02, -187500.02, -187500.02, -187500.02, -187437.14, -38321.50, 0.00, 0.00, 0.00
61, -187500.02, -187500.02, -187500.02, -187500.02, -187500.02, -187500.02, -185419.92, -38037.88, 0.00, 0.00, 0.00
62, -187500.02, -187500.02, -187500.02, -187500.02, -187500.02, -187500.02, -186019.02, -38725.67, 0.00, 0.00, 0.00
63, -187500.02, -187500.02, -187500.02, -187500.02, -187500.02, -187500.02, -187500.02, -39094.56, 0.00, 0.00, 0.00
64, -187500.02, -187500.02, -187500.02, -187500.02, -187500.02, -187500.02, -187500.02, -38476.83, 0.00, 0.00, 0.00
65, -187500.02, -187500.02, -187500.02, -187500.02, -187500.02, -187500.02, -185626.98, -38029.26, 0.00, 0.00, 0.00
66, -187500.02, -187500.02, -187500.02, -187500.02, -187500.02, -187500.02, -185698.31, -38599.02, 0.00, 0.00, 0.00
67, -187500.02, -187500.02, -187500.02, -187500.02, -187500.02, -187500.02, -187500.02, -39122.79, 0.00, 0.00, 0.00
68, -187500.02, -187500.02, -187500.02, -187500.02, -187500.02, -187500.02, -187500.02, -38620.91, 0.03, 0.88, 0.47
69, -187500.02, -187500.02, -187500.02, -187500.02, -187500.02, -187500.02, -185896.23, -38049.73, 0.00, 0.00, 0.00
70, -187500.02, -187500.02, -187500.02, -187500.02, -187500.02, -187500.02, -185412.14, -38483.15, 0.00, 0.00, 0.00
71, -187500.02, -187500.02, -187500.02, -187500.02, -187500.02, -187500.02, -187442.23, -39120.63, 0.00, 0.00, 0.00
72, -187500.02, -187500.02, -187500.02, -187500.02, -187500.02, -187500.02, -187500.02, -38769.46, 0.00, 0.00, 0.00
73, -187500.02, -187500.02, -187500.02, -187500.02, -187500.02, -187500.02, -186196.75, -38086.41, 0.00, 0.00, 0.00
74, -187500.02, -187500.02, -187500.02, -187500.02, -187500.02, -187500.02, -185171.52, -38319.49, 0.00, 0.00, 0.00
75, -187500.02, -187500.02, -187500.02, -187500.02, -187500.02, -187500.02, -186987.92, -39040.58, 0.00, 0.00, 0.00
76, -187500.02, -187500.02, -187500.02, -187500.02, -187500.02, -187500.02, -187500.02, -38880.61, 0.00, 0.00, 0.00
77, -187500.02, -187500.02, -187500.02, -187500.02, -187500.02, -187500.02, -186536.98, -38168.69, 0.00, 0.00, 0.00
78, -187500.02, -187500.02, -187500.02, -187500.02, -187500.02, -187500.02, -185087.44, -38237.48, 0.03, 0.88, 0.47
79, -187500.02, -187500.02, -187500.02, -187500.02, -187500.02, -187500.02, -186568.17, -38984.93, 0.00, 0.00, 0.00
80, -187500.02, -187500.02, -187500.02, -187500.02, -187500.02, -187500.02, -187500.02, -38983.43, 0.00, 0.00, 0.00
81, -187500.02, -187500.02, -187500.02, -187500.02, -187500.02, -187500.02, -186910.47, -38237.35, 0.00, 0.00, 0.00
82, -187500.02, -187500.02, -187500.02, -187500.02, -187500.02, -187500.02, -185108.41, -38110.55, 0.00, 0.00, 0.00
83, -187500.02, -187500.02, -187500.02, -187500.02, -187500.02, -187500.02, -186148.58, -38856.79, 0.00, 0.00, 0.00
84, -187500.02, -187500.02, -187500.02, -187500.02, -187500.02, -187500.02, -187500.02, -39077.13, 0.00, 0.00, 0.00
85, -187500.02, -187500.02, -187500.02, -187500.02, -187500.02, -187500.02, -187257.41, -38369.70, 0.00, 0.00, 0.00
86, -187500.02, -187500.02, -187500.02, -187500.02, -187500.02, -187500.02, -185212.36, -38047.83, 0.00, 0.00, 0.00
87, -187500.02, -187500.02, -187500.02, -187500.02, -187500.02, -187500.02, -185706.47, -38703.56, 0.00, 0.00, 0.00
88, -187500.02, -187500.02, -187500.02, -187500.02, -187500.02, -187500.02, -187500.02, -39100.89, 0.03, 0.88, 0.47
89, -187500.02, -187500.02, -187500.02, -187500.02, -187500.02, -187500.02, -187489.05, -38492.07, 0.00, 0.00, 0.00
90, -187500.02, -187500.02, -187500.02, -187500.02, -187500.02, -187500.02, -185367.30, -38022.15, 0.00, 0.00, 0.00
91, -187500.02, -187500.02, -187500.02, -187500.02, -187500.02, -187500.02, -185370.55, -38583.74, 0.00, 0.00, 0.00
92, -187500.02, -187500.02, -187500.02, -187500.02, -187500.02, -187500.02, -187486.42, -39117.21, 0.00, 0.00, 0.00
93, -187500.02, -187500.02, -187500.02, -187500.02, -187500.02, -187500.02, -187500.02, -38655.80, 0.00, 0.00, 0.00
94, -187500.02, -187500.02, -187500.02, -187500.02, -187500.02, -187500.02, -185700.23, -38053.82, 0.00, 0.00, 0.00
95, -187500.02, -187500.02, -187500.02, -187500.02, -187500.02, -187500.02, -185137.50, -38444.64, 0.00, 0.00, 0.00
96, -187500.02, -187500.02, -187500.02, -187500.02, -187500.02, -187500.02, -187131.06, -39085.73, 0.00, 0.00, 0.00
97, -187500.02, -187500.02, -187500.02, -187500.02, -187500.02, -187500.02, -187500.02, -38775.71, 0.00, 0.00, 0.00
98, -187500.02, -187500.02, -187500.02, -187500.02, -187500.02, -187500.02, -186038.56, -38070.65, 0.03, 0.88, 0.47
99, -187500.02, -187500.02, -187500.02, -187500.02, -187500.02, -187500.02, -184961.50, -38283.75, 0.00, 0.00, 0.00
100, -187500.02, -187500.02, -187500.02, -187500.02, -187500.02, -187500.02, -186711.47, -39002.03, 0.00, 0.00, 0.00
101, -187500.02, -187500.02, -187500.02, -187500.02, -187500.02, -187500.02, -187500.02, -38881.66, 0.00, 0.00, 0.00
102, -187500.02, -187500.02, -187500.02, -187500.02, -187500.02, -187500.02, -186382.72, -38150.27, 0.00, 0.00, 0.00
103, -187500.02, -187500.02, -187500.02, -187500.02, -187500.02, -187500.02, -184872.92, -38164.35, 0.00, 0.00, 0.00
104, -187500.02, -187500.02, -187500.02, -187500.02, -187500.02, -187500.02, -186256.23, -38901.89, 0.00, 0.00, 0.00
105, -187500.02, -187500.02, -187500.02, -187500.02, -187500.02, -187500.02, -187500.02, -38971.43, 0.00, 0.00, 0.00
106, -187500.02, -187500.02, -187500.02, -187500.02, -187500.02, -187500.02, -186746.34, -38263.23, 0.00, 0.00, 0.00
107, -187500.02, -187500.02, -187500.02, -187500.02, -187500.02, -187500.02, -184894.67, -38089.52, 0.00, 0.00, 0.00
108, -187500.02, -187500.02, -187500.02, -187500.02, -187500.02, -187500.02, -185785.39, -38799.54, 0.03, 0.87, 0.46
109, -187500.02, -187500.02, -187500.02, -187500.02, -187500.02, -187500.02, -187500.02, -39078.43, 0.00, 0.00, 0.00
110, -187500.02, -187500.02, -187500.02, -187500.02, -187500.02, -187500.02, -187051.28, -38412.12, 0.00, 0.00, 0.00
111, -187500.02, -187500.02, -187500.02, -187500.02, -187500.02, -187500.02, -184962.33, -38060.32, 0.00, 0.00, 0.00
112, -187500.02, -187500.02, -187500.02, -187500.02, -187500.02, -187500.02, -185362.45, -38685.75, 0.00, 0.00, 0.00
113, -187500.02, -187500.02, -187500.02, -187500.02, -187500.02, -187500.02, -187425.50, -39096.30, 0.00, 0.00, 0.00
114, -187500.02, -187500.02, -187500.02, -187500.02, -187500.02, -187500.02, -187277.13, -38533.60, 0.00, 0.00, 0.00
115, -187500.02, -187500.02, -187500.02, -187500.02, -187500.02, -187500.02, -185152.55, -38033.13, 0.00, 0.00, 0.00
116, -187500.02, -187500.02, -187500.02, -187500.02, -187500.02, -187500.02, -185012.28, -38558.84, 0.00, 0.00, 0.00
117, -187500.02, -187500.02, -187500.02, -187500.02, -187500.02, -187500.02, -187127.23, -39132.70, 0.00, 0.00, 0.00
118, -187500.02, -187500.02, -187500.02, -187500.02, -187500.02, -187500.02, -187493.22, -38689.48, 0.03, 0.88, 0.47
119, -187500.02, -187500.02, -187500.02, -187500.02, -187500.02, -187500.02, -185450.05, -38064.48, 0.00, 0.00, 0.00
120, -187500.02, -187500.02, -187500.02, -187500.02, -187500.02, -187500.02, -184746.11, -38407.09, 0.00, 0.00, 0.00
121, -187500.02, -187500.02, -187500.02, -187500.02, -187500.02, -187500.02, -186686.61, -39076.12, 0.00, 0.00, 0.00
122, -187500.02, -187500.02, -187500.02, -187500.02, -187500.02, -187500.02, -187500.02, -38801.69, 0.00, 0.00, 0.00
123, -187500.02, -187500.02, -187500.02, -187500.02, -187500.02, -187500.02, -185705.75, -38101.50, 0.00, 0.00, 0.00
124, -187500.02, -187500.02, -187500.02, -187500.02, -187500.02, -187500.02, -184528.44, -38277.90, 0.00, 0.00, 0.00
125, -187500.02, -187500.02, -187500.02, -187500.02, -187500.02, -187500.02, -186193.84, -38994.56, 0.00, 0.00, 0.00
126, -187500.02, -187500.02, -187500.02, -187500.02, -187500.02, -187500.02, -187500.02, -38918.18, 0.00, 0.00, 0.00
127, -187500.02, -187500.02, -187500.02, -187500.02, -187500.02, -187500.02, -186035.02, -38185.32, 0.03, 0.88, 0.47
128, -187500.02, -187500.02, -187500.02, -187500.02, -187500.02, -187500.02, -184437.56, -38168.53, 0.00, 0.00, 0.00
129, -187500.02, -187500.02, -187500.02, -187500.02, -187500.02, -187500.02, -185741.42, -38922.41, 0.00, 0.00, 0.00
130, -187500.02, -187500.02, -187500.02, -187500.02, -187500.02, -187500.02, -187446.14, -39021.54, 0.00, 0.00, 0.00
131, -187500.02, -187500.02, -187500.02, -187500.02, -187500.02, -187500.02, -186370.38, -38297.57, 0.00, 0.00, 0.00
132, -187500.02, -187500.02, -187500.02, -187500.02, -187500.02, -187500.02, -184453.66, -38084.80, 0.00, 0.00, 0.00
133, -187500.02, -187500.02, -187500.02, -187500.02, -187500.02, -187500.02, -185264.50, -38796.05, 0.00, 0.00, 0.00
134, -187500.02, -187500.02, -187500.02, -187500.02, -187500.02, -187500.02, -187252.84, -39106.66, 0.00, 0.00, 0.00
135, -187500.02, -187500.02, -187500.02, -187500.02, -187500.02, -187500.02, -186672.78, -38440.17, 0.00, 0.00, 0.00
136, -187500.02, -187500.02, -187500.02, -187500.02, -187500.02, -187500.02, -184591.52, -38048.01, 0.00, 0.00, 0.00
137, -187500.02, -187500.02, -187500.02, -187500.02, -187500.02, -187500.02, -184869.64, -38654.99, 0.03, 0.88, 0.46
138, -187500.02, -187500.02, -187500.02, -187500.02, -187500.02, -187500.02, -186948.33, -39118.03, 0.00, 0.00, 0.00
139, -187500.02, -187500.02, -187500.02, -187500.02, -187500.02, -187500.02, -186895.83, -38579.63, 0.00, 0.00, 0.00
140, -187500.02, -187500.02, -187500.02, -187500.02, -187500.02, -187500.02, -184746.38, -38045.17, 0.00, 0.00, 0.00
141, -187500.02, -187500.02, -187500.02, -187500.02, -187500.02, -187500.02, -184481.44, -38532.53, 0.00, 0.00, 0.00
142, -187500.02, -187500.02, -187500.02, -187500.02, -187500.02, -187500.02, -186551.14, -39115.68, 0.00, 0.00, 0.00
143, -187500.02, -187500.02, -187500.02, -187500.02, -187500.02, -187500.02, -187051.02, -38720.37, 0.00, 0.00, 0.00
144, -187500.02, -187500.02, -187500.02, -187500.02, -187500.02, -187500.02, -185022.28, -38071.73, 0.00, 0.00, 0.00
145, -187500.02, -187500.02, -187500.02, -187500.02, -187500.02, -187500.02, -184228.38, -38406.91, 0.00, 0.00, 0.00
146, -187500.02, -187500.02, -187500.02, -187500.02, -187500.02, -187500.02, -186146.23, -39091.75, 0.00, 0.00, 0.00
147, -187500.02, -187500.02, -187500.02, -187500.02, -187500.02, -187500.02, -187114.53, -38857.81, 0.03, 0.88, 0.47
148, -187500.02, -187500.02, -187500.02, -187500.02, -187500.02, -187500.02, -185331.73, -38151.27, 0.00, 0.00, 0.00
149, -187500.02, -187500.02, -187500.02, -187500.02, -187500.02, -187500.02, -184066.09, -38287.15, 0.00, 0.00, 0.00
150, -187500.02, -187500.02, -187500.02, -187500.02, -187500.02, -187500.02, -185687.09, -38999.68, 0.00, 0.00, 0.00
151, -187500.02, -187500.02, -187500.02, -187500.02, -187500.02, -187500.02, -187091.53, -38939.71, 0.00, 0.00, 0.00
152, -187500.02, -187500.02, -187500.02, -187500.02, -187500.02, -187500.02, -185660.63, -38213.57, 0.00, 0.00, 0.00
153, -187500.02, -187500.02, -187500.02, -187500.02, -187500.02, -187500.02, -183972.58, -38164.55, 0.00, 0.00, 0.00
154, -187500.02, -187500.02, -187500.02, -187500.02, -187500.02, -187500.02, -185168.23, -38914.68, 0.00, 0.00, 0.00
155, -187500.02, -187500.02, -187500.02, -187500.02, -187500.02, -187500.02, -186954.52, -39060.43, 0.00, 0.00, 0.00
156, -187500.02, -187500.02, -187500.02, -187500.02, -187500.02, -187500.02, -185987.92, -38340.59, 0.00, 0.00, 0.00
157, -187500.02, -187500.02, -187500.02, -187500.02, -187500.02, -187500.02, -184028.92, -38091.93, 0.03, 0.88, 0.47
158, -187500.02, -187500.02, -187500.02, -187500.02, -187500.02, -187500.02, -184736.38, -38789.55, 0.00, 0.00, 0.00
159, -187500.02, -187500.02, -187500.02, -187500.02, -187500.02, -187500.02, -186741.22, -39126.59, 0.00, 0.00, 0.00
160, -187500.02, -187500.02, -187500.02, -187500.02, -187500.02, -187500.02, -186288.17, -38490.29, 0.00, 0.00, 0.00
161, -187500.02, -187500.02, -187500.02, -187500.02, -187500.02, -187500.02, -184178.88, -38064.28, 0.00, 0.00, 0.00
162, -187500.02, -187500.02, -187500.02, -187500.02, -187500.02, -187500.02, -184331.56, -38659.24, 0.00, 0.00, 0.00
163, -187500.02, -187500.02, -187500.02, -187500.02, -187500.02, -187500.02, -186411.70, -39149.39, 0.00, 0.00, 0.00
164, -187500.02, -187500.02, -187500.02, -187500.02, -187500.02, -187500.02, -186471.14, -38636.60, 0.00, 0.00, 0.00
165, -187500.02, -187500.02, -187500.02, -187500.02, -187500.02, -187500.02, -184353.41, -38078.68, 0.00, 0.00, 0.00
166, -187500.02, -187500.02, -187500.02, -187500.02, -187500.02, -187500.02, -183963.59, -38523.43, 0.00, 0.00, 0.00
167, -187500.02, -187500.02, -187500.02, -187500.02, -187500.02, -187500.02, -186020.16, -39139.49, 0.03, 0.88, 0.47
168, -187500.02, -187500.02, -187500.02, -187500.02, -187500.02, -187500.02, -186603.13, -38762.10, 0.00, 0.00, 0.00
169, -187500.02, -187500.02, -187500.02, -187500.02, -187500.02, -187500.02, -184591.25, -38090.21, 0.00, 0.00, 0.00
170, -187500.02, -187500.02, -187500.02, -187500.02, -187500.02, -187500.02, -183698.05, -38395.67, 0.00, 0.00, 0.00
171, -187500.02, -187500.02, -187500.02, -187500.02, -187500.02, -187500.02, -185577.16, -39104.27, 0.00, 0.00, 0.00
172, -187500.02, -187500.02, -187500.02, -187500.02, -187500.02, -187500.02, -186653.95, -38895.97, 0.00, 0.00, 0.00
173, -187500.02, -187500.02, -187500.02, -187500.02, -187500.02, -187500.02, -184929.44, -38166.23, 0.00, 0.00, 0.00
174, -187500.02, -187500.02, -187500.02, -187500.02, -187500.02, -187500.02, -183528.61, -38249.40, 0.00, 0.00, 0.00
175, -187500.02, -187500.02, -187500.02, -187500.02, -187500.02, -187500.02, -185072.91, -39002.16, 0.00, 0.00, 0.00
176, -187500.02, -187500.02, -187500.02, -187500.02, -187500.02, -187500.02, -186609.61, -39002.34, 0.00, 0.00, 0.00
177, -187500.02, -187500.02, -187500.02, -187500.02, -187500.02, -187500.02, -185271.84, -38258.50, 0.03, 0.88, 0.46
178, -187500.02, -187500.02, -187500.02, -187500.02, -187500.02, -187500.02, -183533.16, -38170.54, 0.00, 0.00, 0.00
179, -187500.02, -187500.02, -187500.02, -187500.02, -187500.02, -187500.02, -184649.77, -38900.91, 0.00, 0.00, 0.00
180, -187500.02, -187500.02, -187500.02, -187500.02, -187500.02, -187500.02, -186463.13, -39073.57, 0.00, 0.00, 0.00
181, -187500.02, -187500.02, -187500.02, -187500.02, -187500.02, -187500.02, -185563.23, -38376.69, 0.00, 0.00, 0.00
182, -187500.02, -187500.02, -187500.02, -187500.02, -187500.02, -187500.02, -183577.84, -38121.35, 0.00, 0.00, 0.00
183, -187500.02, -187500.02, -187500.02, -187500.02, -187500.02, -187500.02, -184212.08, -38789.64, 0.00, 0.00, 0.00
184, -187500.02, -187500.02, -187500.02, -187500.02, -187500.02, -187500.02, -186221.70, -39133.61, 0.00, 0.00, 0.00
185, -187500.02, -187500.02, -187500.02, -187500.02, -187500.02, -187500.02, -185837.88, -38512.90, 0.00, 0.00, 0.00
186, -187500.02, -187500.02, -187500.02, -187500.02, -187500.02, -187500.02, -183724.20, -38070.74, 0.00, 0.00, 0.00
187, -187500.02, -187500.02, -187500.02, -187500.02, -187500.02, -187500.02, -183793.45, -38649.59, 0.03, 0.88, 0.46
188, -187500.02, -187500.02, -187500.02, -187500.02, -187500.02, -187500.02, -185901.55, -39164.23, 0.00, 0.00, 0.00
189, -187500.02, -187500.02, -187500.02, -187500.02, -187500.02, -187500.02, -186055.25, -38673.12, 0.00, 0.00, 0.00
190, -187500.02, -187500.02, -187500.02, -187500.02, -187500.02, -187500.02, -183945.44, -38085.80, 0.00, 0.00, 0.00
191, -187500.02, -187500.02, -187500.02, -187500.02, -187500.02, -187500.02, -183466.52, -38482.19, 0.00, 0.00, 0.00
192, -187500.02, -187500.02, -187500.02, -187500.02, -187500.02, -187500.02, -185500.34, -39122.30, 0.00, 0.00, 0.00
193, -187500.02, -187500.02, -187500.02, -187500.02, -187500.02, -187500.02, -186189.11, -38787.63, 0.00, 0.00, 0.00
194, -187500.02, -187500.02, -187500.02, -187500.02, -187500.02, -187500.02, -184232.70, -38109.30, 0.00, 0.00, 0.00
195, -187500.02, -187500.02, -187500.02, -187500.02, -187500.02, -187500.02, -183250.08, -38376.98, 0.00, 0.00, 0.00
196, -187500.02, -187500.02, -187500.02, -187500.02, -187500.02, -187500.02, -185076.30, -39084.91, 0.00, 0.00, 0.00
197, -187500.02, -187500.02, -187500.02, -187500.02, -187500.02, -187500.02, -186234.48, -38909.40, 0.04, 0.88, 0.47
198, -187500.02, -187500.02, -187500.02, -187500.02, -187500.02, -187500.02, -184583.81, -38187.33, 0.00, 0.00, 0.00
199, -187500.02, -187500.02, -187500.02, -187500.02, -187500.02, -187500.02, -183118.81, -38248.91, 0.00, 0.00, 0.00
200, -187500.02, -187500.02, -187500.02, -187500.02, -187500.02, -187500.02, -184576.03, -39000.20, 0.00, 0.00, 0.00
201, -187500.02, -187500.02, -187500.02, -187500.02, -187500.02, -187500.02, -186188.89, -39043.85, 0.00, 0.00, 0.00
202, -187500.02, -187500.02, -187500.02, -187500.02, -187500.02, -187500.02, -184946.44, -38306.57, 0.00, 0.00, 0.00
203, -187500.02, -187500.02, -187500.02, -187500.02, -187500.02, -187500.02, -183143.39, -38170.09, 0.00, 0.00, 0.00
204, -187500.02, -187500.02, -187500.02, -187500.02, -187500.02, -187500.02, -184168.28, -38888.82, 0.00, 0.00, 0.00
205, -187500.02, -187500.02, -187500.02, -187500.02, -187500.02, -187500.02, -186013.67, -39102.54, 0.00, 0.00, 0.00
206, -187500.02, -187500.02, -187500.02, -187500.02, -187500.02, -187500.02, -185213.75, -38430.85, 0.00, 0.00, 0.00
207, -187500.02, -187500.02, -187500.02, -187500.02, -187500.02, -187500.02, -183167.23, -38114.04, 0.03, 0.88, 0.47
208, -187500.02, -187500.02, -187500.02, -187500.02, -187500.02, -187500.02, -183680.23, -38773.66, 0.00, 0.00, 0.00
209, -187500.02, -187500.02, -187500.02, -187500.02, -187500.02, -187500.02, -185765.09, -39172.14, 0.00, 0.00, 0.00
210, -187500.02, -187500.02, -187500.02, -187500.02, -187500.02, -187500.02, -185515.83, -38555.75, 0.00, 0.00, 0.00
211, -187500.02, -187500.02, -187500.02, -187500.02, -187500.02, -187500.02, -183371.73, -38068.51, 0.00, 0.00, 0.00
212, -187500.02, -187500.02, -187500.02, -187500.02, -187500.02, -187500.02, -183305.98, -38605.35, 0.00, 0.00, 0.00
213, -187500.02, -187500.02, -187500.02, -187500.02, -187500.02, -187500.02, -185382.84, -39162.22, 0.00, 0.00, 0.00
214, -187500.02, -187500.02, -187500.02, -187500.02, -187500.02, -187500.02, -185649.61, -38704.50, 0.00, 0.00, 0.00
215, -187500.02, -187500.02, -187500.02, -187500.02, -187500.02, -187500.02, -183567.55, -38107.76, 0.00, 0.00, 0.00
216, -187500.02, -187500.02, -187500.02, -187500.02, -187500.02, -187500.02, -182972.53, -38503.25, 0.03, 0.87, 0.48
217, -187500.02, -187500.02, -187500.02, -187500.02, -187500.02, -187500.02, -184958.33, -39153.97, 0.00, 0.00, 0.00
218, -187500.02, -187500.02, -187500.02, -187500.02, -187500.02, -187500.02, -185759.73, -38853.16, 0.00, 0.00, 0.00
219, -187500.02, -187500.02, -187500.02, -187500.02, -187500.02, -187500.02, -183897.66, -38162.83, 0.00, 0.00, 0.00
220, -187500.02, -187500.02, -187500.02, -187500.02, -187500.02, -187500.02, -182776.22, -38355.73, 0.00, 0.00, 0.00
221, -187500.02, -187500.02, -187500.02, -187500.02, -187500.02, -187500.02, -184514.25, -39089.20, 0.00, 0.00, 0.00
222, -187500.02, -187500.02, -187500.02, -187500.02, -187500.02, -187500.02, -185807.81, -38944.23, 0.00, 0.00, 0.00
223, -187500.02, -187500.02, -187500.02, -187500.02, -187500.02, -187500.02, -184243.14, -38196.31, 0.00, 0.00, 0.00
224, -187500.02, -187500.02, -187500.02, -187500.02, -187500.02, -187500.02, -182715.16, -38220.45, 0.00, 0.00, 0.00
225, -187500.02, -187500.02, -187500.02, -187500.02, -187500.02, -187500.02, -184091.63, -38982.02, 0.00, 0.00, 0.00
226, -187500.02, -187500.02, -187500.02, -187500.02, -187500.02, -187500.02, -185733.36, -39044.92, 0.03, 0.87, 0.47
227, -187500.02, -187500.02, -187500.02, -187500.02, -187500.02, -187500.02, -184548.36, -38304.32, 0.00, 0.00, 0.00
228, -187500.02, -187500.02, -187500.02, -187500.02, -187500.02, -187500.02, -182700.27, -38146.87, 0.00, 0.00, 0.00
229, -187500.02, -187500.02, -187500.02, -187500.02, -187500.02, -187500.02, -183605.92, -38865.93, 0.00, 0.00, 0.00
230, -187500.02, -187500.02, -187500.02, -187500.02, -187500.02, -187500.02, -185531.67, -39135.94, 0.00, 0.00, 0.00
231, -187500.02, -187500.02, -187500.02, -187500.02, -187500.02, -187500.02, -184827.89, -38462.05, 0.00, 0.00, 0.00
232, -187500.02, -187500.02, -187500.02, -187500.02, -187500.02, -187500.02, -182732.75, -38119.96, 0.00, 0.00, 0.00
233, -187500.02, -187500.02, -187500.02, -187500.02, -187500.02, -187500.02, -183108.70, -38763.27, 0.00, 0.00, 0.00
234, -187500.02, -187500.02, -187500.02, -187500.02, -187500.02, -187500.02, -185217.81, -39185.20, 0.00, 0.00, 0.00
235, -187500.02, -187500.02, -187500.02, -187500.02, -187500.02, -187500.02, -185109.08, -38610.83, 0.00, 0.00, 0.00
236, -187500.02, -187500.02, -187500.02, -187500.02, -187500.02, -187500.02, -182949.94, -38088.15, 0.03, 0.88, 0.47
237, -187500.02, -187500.02, -187500.02, -187500.02, -187500.02, -187500.02, -182782.53, -38608.52, 0.00, 0.00, 0.00
238, -187500.02, -187500.02, -187500.02, -187500.02, -187500.02, -187500.02, -184851.20, -39178.92, 0.00, 0.00, 0.00
239, -187500.02, -187500.02, -187500.02, -187500.02, -187500.02, -187500.02, -185224.34, -38747.91, 0.00, 0.00, 0.00
240, -187500.02, -187500.02, -187500.02, -187500.02, -187500.02, -187500.02, -183155.22, -38114.51, 0.00, 0.00, 0.00
241, -187500.02, -187500.02, -187500.02, -187500.02, -187500.02, -187500.02, -182429.20, -38476.70, 0.00, 0.00, 0.00
242, -187500.02, -187500.02, -187500.02, -187500.02, -187500.02, -187500.02, -184386.44, -39161.62, 0.00, 0.00, 0.00
243, -187500.02, -187500.02, -187500.02, -187500.02, -187500.02, -187500.02, -185256.58, -38884.59, 0.00, 0.00, 0.00
244, -187500.02, -187500.02, -187500.02, -187500.02, -187500.02, -187500.02, -183390.83, -38181.11, 0.00, 0.00, 0.00
245, -187500.02, -187500.02, -187500.02, -187500.02, -187500.02, -187500.02, -182191.36, -38363.24, 0.00, 0.00, 0.00
246, -187500.02, -187500.02, -187500.02, -187500.02, -187500.02, -187500.02, -183865.28, -39102.50, 0.03, 0.88, 0.47
247, -187500.02, -187500.02, -187500.02, -187500.02, -187500.02, -187500.02, -185211.16, -39032.52, 0.00, 0.00, 0.00
248, -187500.02, -187500.02, -187500.02, -187500.02, -187500.02, -187500.02, -183720.58, -38295.02, 0.00, 0.00, 0.00
249, -187500.02, -187500.02, -187500.02, -187500.02, -187500.02, -187500.02, -182085.94, -38252.64, 0.00, 0.00, 0.00
250, -187500.02, -187500.02, -187500.02, -187500.02, -187500.02, -187500.02, -183391.30, -38992.75, 0.00, 0.00, 0.00
251, -187500.02, -187500.02, -187500.02, -187500.02, -187500.02, -187500.02, -185121.48, -39097.13, 0.00, 0.00, 0.00
252, -187500.02, -187500.02, -187500.02, -187500.02, -187500.02, -187500.02, -184066.63, -38386.41, 0.00, 0.00, 0.00
253, -187500.02, -187500.02, -187500.02, -187500.02, -187500.02, -187500.02, -182127.89, -38175.17, 0.00, 0.00, 0.00
254, -187500.02, -187500.02, -187500.02, -187500.02, -187500.02, -187500.02, -182930.89, -38893.82, 0.00, 0.00, 0.00
255, -187500.02, -187500.02, -187500.02, -187500.02, -187500.02, -187500.02, -184921.63, -39189.43, 0.00, 0.00, 0.00
0, -187500.02, -187500.02, -187500.02, -187500.02, -187500.02, -187500.02, -184339.45, -38517.35, 0.03, 0.88, 0.46
1, -187500.02, -187500.02, -187500.02, -187500.02, -187500.02, -187500.02, -182221.63, -38114.26, 0.00, 0.00, 0.00
2, -187500.02, -187500.02, -187500.02, -187500.02, -187500.02, -187500.02, -182486.05, -38718.59, 0.00, 0.00, 0.00
3, -187500.02, -187500.02, -187500.02, -187500.02, -187500.02, -187500.02, -184579.06, -39185.18, 0.00, 0.00, 0.00
4, -187500.02, -187500.02, -187500.02, -187500.02, -187500.02, -187500.02, -184531.72, -38643.68, 0.00, 0.00, 0.00
5, -187500.02, -187500.02, -187500.02, -187500.02, -187500.02, -187500.02, -182416.72, -38117.14, 0.00, 0.00, 0.00
6, -187500.02, -187500.02, -187500.02, -187500.02, -187500.02, -187500.02, -182131.64, -38587.47, 0.00, 0.00, 0.00
7, -187500.02, -187500.02, -187500.02, -187500.02, -187500.02, -187500.02, -184212.95, -39193.20, 0.00, 0.00, 0.00
8, -187500.02, -187500.02, -187500.02, -187500.02, -187500.02, -187500.02, -184719.39, -38792.39, 0.00, 0.00, 0.00
9, -187500.02, -187500.02, -187500.02, -187500.02, -187500.02, -187500.02, -182669.72, -38145.04, 0.00, 0.00, 0.00
10, -187500.02, -187500.02, -187500.02, -187500.02, -187500.02, -187500.02, -181847.84, -38489.37, 0.04, 0.88, 0.46
11, -187500.02, -187500.02, -187500.02, -187500.02, -187500.02, -187500.02, -183781.84, -39193.65, 0.00, 0.00, 0.00
12, -187500.02, -187500.02, -187500.02, -187500.02, -187500.02, -187500.02, -184774.63, -38924.55, 0.00, 0.00, 0.00
13, -187500.02, -187500.02, -187500.02, -187500.02, -187500.02, -187500.02, -182963.44, -38190.05, 0.00, 0.00, 0.00
14, -187500.02, -187500.02, -187500.02, -187500.02, -187500.02, -187500.02, -181625.00, -38337.29, 0.00, 0.00, 0.00
15, -187500.02, -187500.02, -187500.02, -187500.02, -187500.02, -187500.02, -183246.39, -39102.90, 0.00, 0.00, 0.00
16, -187500.02, -187500.02, -187500.02, -187500.02, -187500.02, -187500.02, -184692.14, -39063.56, 0.00, 0.00, 0.00
17, -187500.02, -187500.02, -187500.02, -187500.02, -187500.02, -187500.02, -183230.92, -38311.07, 0.00, 0.00, 0.00
18, -187500.02, -187500.02, -187500.02, -187500.02, -187500.02, -187500.02, -181558.78, -38268.00, 0.00, 0.00, 0.00
19, -187500.02, -187500.02, -187500.02, -187500.02, -187500.02, -187500.02, -182793.59, -39010.10, 0.00, 0.00, 0.00
20, -187500.02, -187500.02, -187500.02, -187500.02, -187500.02, -187500.02, -184581.95, -39143.43, 0.04, 0.88, 0.47
21, -187500.02, -187500.02, -187500.02, -187500.02, -187500.02, -187500.02, -183621.23, -38430.34, 0.00, 0.00, 0.00
22, -187500.02, -187500.02, -187500.02, -187500.02, -187500.02, -187500.02, -181635.66, -38169.89, 0.00, 0.00, 0.00
23, -187500.02, -187500.02, -187500.02, -187500.02, -187500.02, -187500.02, -182340.20, -38867.49, 0.00, 0.00, 0.00
24, -187500.02, -187500.02, -187500.02, -187500.02, -187500.02, -187500.02, -184342.19, -39186.90, 0.00, 0.00, 0.00
25, -187500.02, -187500.02, -187500.02, -187500.02, -187500.02, -187500.02, -183868.50, -38551.10, 0.00, 0.00, 0.00
26, -187500.02, -187500.02, -187500.02, -187500.02, -187500.02, -187500.02, -181748.98, -38134.33, 0.00, 0.00, 0.00
27, -187500.02, -187500.02, -187500.02, -187500.02, -187500.02, -187500.02, -181889.75, -38720.30, 0.00, 0.00, 0.00
28, -187500.02, -187500.02, -187500.02, -187500.02, -187500.02, -187500.02, -183986.13, -39206.99, 0.00, 0.00, 0.00
29, -187500.02, -187500.02, -187500.02, -187500.02, -187500.02, -187500.02, -184037.13, -38678.29, 0.00, 0.00, 0.00
30, -187500.02, -187500.02, -187500.02, -187500.02, -187500.02, -187500.02, -181921.42, -38116.74, 0.03, 0.87, 0.47
31, -187500.02, -187500.02, -187500.02, -187500.02, -187500.02, -187500.02, -181511.94, -38575.58, 0.00, 0.00, 0.00
32, -187500.02, -187500.02, -187500.02, -187500.02, -187500.02, -187500.02, -183578.27, -39214.77, 0.00, 0.00, 0.00
33, -187500.02, -187500.02, -187500.02, -187500.02, -187500.02, -187500.02, -184183.86, -38833.25, 0.00, 0.00, 0.00
34, -187500.02, -187500.02, -187500.02, -187500.02, -187500.02, -187500.02, -182164.03, -38144.59, 0.00, 0.00, 0.00
35, -187500.02, -187500.02, -187500.02, -187500.02, -187500.02, -187500.02, -181208.30, -38412.90, 0.00, 0.00, 0.00
36, -187500.02, -187500.02, -187500.02, -187500.02, -187500.02, -187500.02, -183057.31, -39123.51, 0.00, 0.00, 0.00
37, -187500.02, -187500.02, -187500.02, -187500.02, -187500.02, -187500.02, -184150.89, -38929.83, 0.00, 0.00, 0.00
38, -187500.02, -187500.02, -187500.02, -187500.02, -187500.02, -187500.02, -182428.27, -38217.73, 0.00, 0.00, 0.00
39, -187500.02, -187500.02, -187500.02, -187500.02, -187500.02, -187500.02, -181033.33, -38326.89, 0.00, 0.00, 0.00
40, -187500.02, -187500.02, -187500.02, -187500.02, -187500.02, -187500.02, -182584.80, -39077.26, 0.03, 0.87, 0.48
41, -187500.02, -187500.02, -187500.02, -187500.02, -187500.02, -187500.02, -184109.39, -39062.64, 0.00, 0.00, 0.00
42, -187500.02, -187500.02, -187500.02, -187500.02, -187500.02, -187500.02, -182788.63, -38334.16, 0.00, 0.00, 0.00
43, -187500.02, -187500.02, -187500.02, -187500.02, -187500.02, -187500.02, -181051.58, -38247.19, 0.00, 0.00, 0.00
44, -187500.02, -187500.02, -187500.02, -187500.02, -187500.02, -187500.02, -182116.22, -38971.38, 0.00, 0.00, 0.00
45, -187500.02, -187500.02, -187500.02, -187500.02, -187500.02, -187500.02, -183945.44, -39160.03, 0.00, 0.00, 0.00
46, -187500.02, -187500.02, -187500.02, -187500.02, -187500.02, -187500.02, -183057.36, -38451.53, 0.00, 0.00, 0.00
47, -187500.02, -187500.02, -187500.02, -187500.02, -187500.02, -187500.02, -181042.42, -38159.28, 0.00, 0.00, 0.00
48, -187500.02, -187500.02, -187500.02, -187500.02, -187500.02, -187500.02, -181621.80, -38826.23, 0.00, 0.00, 0.00
49, -187500.02, -187500.02, -187500.02, -187500.02, -187500.02, -187500.02, -183657.89, -39200.42, 0.03, 0.88, 0.47
50, -187500.02, -187500.02, -187500.02, -187500.02, -187500.02, -187500.02, -183276.52, -38594.24, 0.00, 0.00, 0.00
51, -187500.02, -187500.02, -187500.02, -187500.02, -187500.02, -187500.02, -181135.77, -38155.90, 0.00, 0.00, 0.00
52, -187500.02, -187500.02, -187500.02, -187500.02, -187500.02, -187500.02, -181210.91, -38729.56, 0.00, 0.00, 0.00
53, -187500.02, -187500.02, -187500.02, -187500.02, -187500.02, -187500.02, -183325.17, -39240.43, 0.00, 0.00, 0.00
54, -187500.02, -187500.02, -187500.02, -187500.02, -187500.02, -187500.02, -183519.86, -38753.30, 0.00, 0.00, 0.00
55, -187500.02, -187500.02, -187500.02, -187500.02, -187500.02, -187500.02, -181421.44, -38167.14, 0.00, 0.00, 0.00
56, -187500.02, -187500.02, -187500.02, -187500.02, -187500.02, -187500.02, -180904.53, -38580.85, 0.00, 0.00, 0.00
57, -187500.02, -187500.02, -187500.02, -187500.02, -187500.02, -187500.02, -182917.94, -39230.80, 0.00, 0.00, 0.00
58, -187500.02, -187500.02, -187500.02, -187500.02, -187500.02, -187500.02, -183606.52, -38890.71, 0.00, 0.00, 0.00
59, -187500.02, -187500.02, -187500.02, -187500.02, -187500.02, -187500.02, -181661.83, -38213.97, 0.03, 0.88, 0.47
80, -187500.02, -187500.02, -187500.02, -187500.02, -187500.02, -187500.02, -180851.52, -38161.82, 0.00, 0.00, 0.00
81, -187500.02, -187500.02, -187500.02, -187500.02, -187500.02, -187500.02, -180209.91, -38547.23, 0.00, 0.00, 0.00
82, -187500.02, -187500.02, -187500.02, -187500.02, -187500.02, -187500.02, -182193.63, -39219.84, 0.00, 0.00, 0.00
83, -187500.02, -187500.02, -187500.02, -187500.02, -187500.02, -187500.02, -183001.42, -38929.79, 0.00, 0.00, 0.00
84, -187500.02, -187500.02, -187500.02, -187500.02, -187500.02, -187500.02, -181107.97, -38248.15, 0.00, 0.00, 0.00
85, -187500.02, -187500.02, -187500.02, -187500.02, -187500.02, -187500.02, -179974.88, -38432.53, 0.00, 0.00, 0.00
86, -187500.02, -187500.02, -187500.02, -187500.02, -187500.02, -187500.02, -181700.97, -39135.82, 0.00, 0.00, 0.00
87, -187500.02, -187500.02, -187500.02, -187500.02, -187500.02, -187500.02, -182990.42, -39028.43, 0.00, 0.00, 0.00
88, -187500.02, -187500.02, -187500.02, -187500.02, -187500.02, -187500.02, -181414.66, -38289.74, 0.00, 0.00, 0.00
89, -187500.02, -187500.02, -187500.02, -187500.02, -187500.02, -187500.02, -179840.72, -38299.00, 0.03, 0.88, 0.46
90, -187500.02, -187500.02, -187500.02, -187500.02, -187500.02, -187500.02, -181196.41, -39050.73, 0.00, 0.00, 0.00
91, -187500.02, -187500.02, -187500.02, -187500.02, -187500.02, -187500.02, -182872.59, -39133.61, 0.00, 0.00, 0.00
92, -187500.02, -187500.02, -187500.02, -187500.02, -187500.02, -187500.02, -181729.31, -38412.48, 0.00, 0.00, 0.00
93, -187500.02, -187500.02, -187500.02, -187500.02, -187500.02, -187500.02, -179850.83, -38229.24, 0.00, 0.00, 0.00
94, -187500.02, -187500.02, -187500.02, -187500.02, -187500.02, -187500.02, -180749.03, -38933.00, 0.00, 0.00, 0.00
95, -187500.02, -187500.02, -187500.02, -187500.02, -187500.02, -187500.02, -182670.78, -39189.65, 0.00, 0.00, 0.00
96, -187500.02, -187500.02, -187500.02, -187500.02, -187500.02, -187500.02, -181982.75, -38521.98, 0.00, 0.00, 0.00
97, -187500.02, -187500.02, -187500.02, -187500.02, -187500.02, -187500.02, -179888.36, -38173.14, 0.00, 0.00, 0.00
98, -187500.02, -187500.02, -187500.02, -187500.02, -187500.02, -187500.02, -180246.30, -38802.34, 0.00, 0.00, 0.00
99, -187500.02, -187500.02, -187500.02, -187500.02, -187500.02, -187500.02, -182319.81, -39241.50, 0.03, 0.88, 0.46
100, -187500.02, -187500.02, -187500.02, -187500.02, -187500.02, -187500.02, -182198.09, -38683.52, 0.00, 0.00, 0.00
101, -187500.02, -187500.02, -187500.02, -187500.02, -187500.02, -187500.02, -180053.16, -38156.86, 0.00, 0.00, 0.00
102, -187500.02, -187500.02, -187500.02, -187500.02, -187500.02, -187500.02, -179855.73, -38659.22, 0.00, 0.00, 0.00
103, -187500.02, -187500.02, -187500.02, -187500.02, -187500.02, -187500.02, -181937.31, -39232.00, 0.00, 0.00, 0.00
104, -187500.02, -187500.02, -187500.02, -187500.02, -187500.02, -187500.02, -182321.42, -38800.30, 0.00, 0.00, 0.00
105, -187500.02, -187500.02, -187500.02, -187500.02, -187500.02, -187500.02, -180266.61, -38176.87, 0.00, 0.00, 0.00
106, -187500.02, -187500.02, -187500.02, -187500.02, -187500.02, -187500.02, -179528.06, -38516.66, 0.00, 0.00, 0.00
107, -187500.02, -187500.02, -187500.02, -187500.02, -187500.02, -187500.02, -181460.44, -39194.14, 0.00, 0.00, 0.00
108, -187500.02, -187500.02, -187500.02, -187500.02, -187500.02, -187500.02, -182373.22, -38929.56, 0.00, 0.00, 0.00
109, -187500.02, -187500.02, -187500.02, -187500.02, -187500.02, -187500.02, -180519.75, -38220.39, 0.03, 0.87, 0.46
110, -187500.02, -187500.02, -187500.02, -187500.02, -187500.02, -187500.02, -179271.98, -38396.65, 0.00, 0.00, 0.00
111, -187500.02, -187500.02, -187500.02, -187500.02, -187500.02, -187500.02, -180907.50, -39126.68, 0.00, 0.00, 0.00
112, -187500.02, -187500.02, -187500.02, -187500.02, -187500.02, -187500.02, -182265.45, -39042.51, 0.00, 0.00, 0.00
113, -187500.02, -187500.02, -187500.02, -187500.02, -187500.02, -187500.02, -180753.48, -38305.17, 0.00, 0.00, 0.00
114, -187500.02, -187500.02, -187500.02, -187500.02, -187500.02, -187500.02, -179151.78, -38301.75, 0.00, 0.00, 0.00
115, -187500.02, -187500.02, -187500.02, -187500.02, -187500.02, -187500.02, -180452.67, -39035.13, 0.00, 0.00, 0.00
116, -187500.02, -187500.02, -187500.02, -187500.02, -187500.02, -187500.02, -182181.16, -39135.18, 0.00, 0.00, 0.00
117, -187500.02, -187500.02, -187500.02, -187500.02, -187500.02, -187500.02, -181085.73, -38416.52, 0.00, 0.00, 0.00
118, -187500.02, -187500.02, -187500.02, -187500.02, -187500.02, -187500.02, -179110.25, -38210.51, 0.00, 0.00, 0.00
119, -187500.02, -187500.02, -187500.02, -187500.02, -187500.02, -187500.02, -179883.91, -38912.98, 0.03, 0.87, 0.46
120, -187500.02, -187500.02, -187500.02, -187500.02, -187500.02, -187500.02, -181839.42, -39203.64, 0.00, 0.00, 0.00
121, -187500.02, -187500.02, -187500.02, -187500.02, -187500.02, -187500.02, -181252.09, -38550.03, 0.00, 0.00, 0.00
122, -187500.02, -187500.02, -187500.02, -187500.02, -187500.02, -187500.02, -179142.56, -38170.54, 0.00, 0.00, 0.00
123, -187500.02, -187500.02, -187500.02, -187500.02, -187500.02, -187500.02, -179409.05, -38785.80, 0.00, 0.00, 0.00
124, -187500.02, -187500.02, -187500.02, -187500.02, -187500.02, -187500.02, -181515.97, -39248.81, 0.00, 0.00, 0.00
125, -187500.02, -187500.02, -187500.02, -187500.02, -187500.02, -187500.02, -181484.89, -38708.28, 0.00, 0.00, 0.00
126, -187500.02, -187500.02, -187500.02, -187500.02, -187500.02, -187500.02, -179352.67, -38178.88, 0.00, 0.00, 0.00
127, -187500.02, -187500.02, -187500.02, -187500.02, -187500.02, -187500.02, -179041.20, -38653.68, 0.00, 0.00, 0.00
128, -187500.02, -187500.02, -187500.02, -187500.02, -187500.02, -187500.02, -181087.95, -39242.22, 0.00, 0.00, 0.00
129, -187500.02, -187500.02, -187500.02, -187500.02, -187500.02, -187500.02, -181568.72, -38848.54, 0.03, 0.88, 0.46
130, -187500.02, -187500.02, -187500.02, -187500.02, -187500.02, -187500.02, -179568.09, -38223.85, 0.00, 0.00, 0.00
131, -187500.02, -187500.02, -187500.02, -187500.02, -187500.02, -187500.02, -178726.42, -38531.84, 0.00, 0.00, 0.00
132, -187500.02, -187500.02, -187500.02, -187500.02, -187500.02, -187500.02, -180603.78, -39213.27, 0.00, 0.00, 0.00
133, -187500.02, -187500.02, -187500.02, -187500.02, -187500.02, -187500.02, -181605.89, -38952.45, 0.00, 0.00, 0.00
134, -187500.02, -187500.02, -187500.02, -187500.02, -187500.02, -187500.02, -179825.88, -38233.64, 0.00, 0.00, 0.00
135, -187500.02, -187500.02, -187500.02, -187500.02, -187500.02, -187500.02, -178512.83, -38371.98, 0.00, 0.00, 0.00
136, -187500.02, -187500.02, -187500.02, -187500.02, -187500.02, -187500.02, -180093.50, -39113.52, 0.00, 0.00, 0.00
157, -187500.02, -187500.02, -187500.02, -187500.02, -187500.02, -187500.02, -179841.48, -39199.21, 0.00, 0.00, 0.00
158, -187500.02, -187500.02, -187500.02, -187500.02, -187500.02, -187500.02, -180939.98, -39011.59, 0.02, 0.89, 0.45
159, -187500.02, -187500.02, -187500.02, -187500.02, -187500.02, -187500.02, -179214.45, -38295.76, 0.00, 0.00, 0.00
160, -187500.02, -187500.02, -187500.02, -187500.02, -187500.02, -187500.02, -177809.39, -38385.07, 0.00, 0.00, 0.00
161, -187500.02, -187500.02, -187500.02, -187500.02, -187500.02, -187500.02, -179327.64, -39121.12, 0.00, 0.00, 0.00
162, -187500.02, -187500.02, -187500.02, -187500.02, -187500.02, -187500.02, -180836.20, -39114.39, 0.00, 0.00, 0.00
163, -187500.02, -187500.02, -187500.02, -187500.02, -187500.02, -187500.02, -179505.22, -38388.05, 0.00, 0.00, 0.00
164, -187500.02, -187500.02, -187500.02, -187500.02, -187500.02, -187500.02, -177755.64, -38298.82, 0.00, 0.00, 0.00
165, -187500.02, -187500.02, -187500.02, -187500.02, -187500.02, -187500.02, -178849.58, -39025.77, 0.00, 0.00, 0.00
166, -187500.02, -187500.02, -187500.02, -187500.02, -187500.02, -187500.02, -180685.55, -39218.17, 0.00, 0.00, 0.00
167, -187500.02, -187500.02, -187500.02, -187500.02, -187500.02, -187500.02, -179798.52, -38520.04, 0.00, 0.00, 0.00
168, -187500.02, -187500.02, -187500.02, -187500.02, -187500.02, -187500.02, -177765.45, -38226.80, 0.02, 0.88, 0.45
169, -187500.02, -187500.02, -187500.02, -187500.02, -187500.02, -187500.02, -178383.55, -38901.85, 0.00, 0.00, 0.00
170, -187500.02, -187500.02, -187500.02, -187500.02, -187500.02, -187500.02, -180418.27, -39247.63, 0.00, 0.00, 0.00
171, -187500.02, -187500.02, -187500.02, -187500.02, -187500.02, -187500.02, -180062.55, -38634.56, 0.00, 0.00, 0.00
172, -187500.02, -187500.02, -187500.02, -187500.02, -187500.02, -187500.02, -177913.59, -38178.05, 0.00, 0.00, 0.00
173, -187500.02, -187500.02, -187500.02, -187500.02, -187500.02, -187500.02, -177941.09, -38747.73, 0.00, 0.00, 0.00
174, -187500.02, -187500.02, -187500.02, -187500.02, -187500.02, -187500.02, -180050.36, -39270.54, 0.00, 0.00, 0.00
175, -187500.02, -187500.02, -187500.02, -187500.02, -187500.02, -187500.02, -180247.33, -38776.68, 0.00, 0.00, 0.00
176, -187500.02, -187500.02, -187500.02, -187500.02, -187500.02, -187500.02, -178107.95, -38194.30, 0.00, 0.00, 0.00
177, -187500.02, -187500.02, -187500.02, -187500.02, -187500.02, -187500.02, -177604.94, -38626.70, 0.00, 0.00, 0.00
178, -187500.02, -187500.02, -187500.02, -187500.02, -187500.02, -187500.02, -179601.83, -39243.20, 0.02, 0.88, 0.46
179, -187500.02, -187500.02, -187500.02, -187500.02, -187500.02, -187500.02, -180316.59, -38911.39, 0.00, 0.00, 0.00
180, -187500.02, -187500.02, -187500.02, -187500.02, -187500.02, -187500.02, -178370.06, -38232.16, 0.00, 0.00, 0.00
181, -187500.02, -187500.02, -187500.02, -187500.02, -187500.02, -187500.02, -177319.83, -38473.52, 0.00, 0.00, 0.00
182, -187500.02, -187500.02, -187500.02, -187500.02, -187500.02, -187500.02, -179125.23, -39198.12, 0.00, 0.00, 0.00
183, -187500.02, -187500.02, -187500.02, -187500.02, -187500.02, -187500.02, -180322.58, -39042.51, 0.00, 0.00, 0.00
184, -187500.02, -187500.02, -187500.02, -187500.02, -187500.02, -187500.02, -178679.08, -38320.14, 0.00, 0.00, 0.00
185, -187500.02, -187500.02, -187500.02, -187500.02, -187500.02, -187500.02, -177194.91, -38377.36, 0.00, 0.00, 0.00
186, -187500.02, -187500.02, -187500.02, -187500.02, -187500.02, -187500.02, -178653.48, -39125.14, 0.00, 0.00, 0.00
187, -187500.02, -187500.02, -187500.02, -187500.02, -187500.02, -187500.02, -180266.83, -39155.43, 0.00, 0.00, 0.00
188, -187500.02, -187500.02, -187500.02, -187500.02, -187500.02, -187500.02, -179031.97, -38431.90, 0.02, 0.89, 0.46
189, -187500.02, -187500.02, -187500.02, -187500.02, -187500.02, -187500.02, -177191.03, -38287.26, 0.00, 0.00, 0.00
190, -187500.02, -187500.02, -187500.02, -187500.02, -187500.02, -187500.02, -178179.77, -39010.18, 0.00, 0.00, 0.00
191, -187500.02, -187500.02, -187500.02, -187500.02, -187500.02, -187500.02, -180076.73, -39242.44, 0.00, 0.00, 0.00
192, -187500.02, -187500.02, -187500.02, -187500.02, -187500.02, -187500.02, -179324.63, -38554.95, 0.00, 0.00, 0.00
213, -187500.02, -187500.02, -187500.02, -187500.02, -187500.02, -187500.02, -178589.25, -38465.85, 0.00, 0.00, 0.00
214, -187500.02, -187500.02, -187500.02, -187500.02, -187500.02, -187500.02, -176735.23, -38294.66, 0.00, 0.00, 0.00
215, -187500.02, -187500.02, -187500.02, -187500.02, -187500.02, -187500.02, -177628.19, -38993.20, 0.00, 0.00, 0.00
216, -187500.02, -187500.02, -187500.02, -187500.02, -187500.02, -187500.02, -179564.08, -39263.61, 0.00, 0.00, 0.00
217, -187500.02, -187500.02, -187500.02, -187500.02, -187500.02, -187500.02, -178896.38, -38593.62, 0.00, 0.00, 0.00
218, -187500.02, -187500.02, -187500.02, -187500.02, -187500.02, -187500.02, -176799.03, -38227.81, 0.03, 0.88, 0.46
219, -187500.02, -187500.02, -187500.02, -187500.02, -187500.02, -187500.02, -177189.00, -38869.61, 0.00, 0.00, 0.00
220, -187500.02, -187500.02, -187500.02, -187500.02, -187500.02, -187500.02, -179265.64, -39292.76, 0.00, 0.00, 0.00
221, -187500.02, -187500.02, -187500.02, -187500.02, -187500.02, -187500.02, -179134.88, -38739.17, 0.00, 0.00, 0.00
222, -187500.02, -187500.02, -187500.02, -187500.02, -187500.02, -187500.02, -177012.08, -38226.15, 0.00, 0.00, 0.00
223, -187500.02, -187500.02, -187500.02, -187500.02, -187500.02, -187500.02, -176812.06, -38718.29, 0.00, 0.00, 0.00
224, -187500.02, -187500.02, -187500.02, -187500.02, -187500.02, -187500.02, -178897.30, -39290.25, 0.00, 0.00, 0.00
225, -187500.02, -187500.02, -187500.02, -187500.02, -187500.02, -187500.02, -179308.73, -38864.23, 0.00, 0.00, 0.00
226, -187500.02, -187500.02, -187500.02, -187500.02, -187500.02, -187500.02, -177254.53, -38241.93, 0.00, 0.00, 0.00
227, -187500.02, -187500.02, -187500.02, -187500.02, -187500.02, -187500.02, -176517.63, -38591.70, 0.03, 0.89, 0.45
228, -187500.02, -187500.02, -187500.02, -187500.02, -187500.02, -187500.02, -178472.13, -39270.02, 0.00, 0.00, 0.00
229, -187500.02, -187500.02, -187500.02, -187500.02, -187500.02, -187500.02, -179390.05, -38995.79, 0.00, 0.00, 0.00
230, -187500.02, -187500.02, -187500.02, -187500.02, -187500.02, -187500.02, -177543.91, -38280.71, 0.00, 0.00, 0.00
231, -187500.02, -187500.02, -187500.02, -187500.02, -187500.02, -187500.02, -176313.17, -38444.60, 0.00, 0.00, 0.00
232, -187500.02, -187500.02, -187500.02, -187500.02, -187500.02, -187500.02, -177998.69, -39179.30, 0.00, 0.00, 0.00
233, -187500.02, -187500.02, -187500.02, -187500.02, -187500.02, -187500.02, -179385.53, -39102.03, 0.00, 0.00, 0.00
234, -187500.02, -187500.02, -187500.02, -187500.02, -187500.02, -187500.02, -177906.64, -38372.87, 0.00, 0.00, 0.00
235, -187500.02, -187500.02, -187500.02, -187500.02, -187500.02, -187500.02, -176271.58, -38346.00, 0.00, 0.00, 0.00
236, -187500.02, -187500.02, -187500.02, -187500.02, -187500.02, -187500.02, -177516.92, -39075.18, 0.00, 0.00, 0.00
237, -187500.02, -187500.02, -187500.02, -187500.02, -187500.02, -187500.02, -179253.42, -39193.40, 0.03, 0.88, 0.46
238, -187500.02, -187500.02, -187500.02, -187500.02, -187500.02, -187500.02, -178202.31, -38484.94, 0.00, 0.00, 0.00
239, -187500.02, -187500.02, -187500.02, -187500.02, -187500.02, -187500.02, -176270.23, -38272.04, 0.00, 0.00, 0.00
240, -187500.02, -187500.02, -187500.02, -187500.02, -187500.02, -187500.02, -177065.31, -38978.13, 0.00, 0.00, 0.00
241, -187500.02, -187500.02, -187500.02, -187500.02, -187500.02, -187500.02, -179064.67, -39292.44, 0.00, 0.00, 0.00
242, -187500.02, -187500.02, -187500.02, -187500.02, -187500.02, -187500.02, -178497.56, -38638.39, 0.00, 0.00, 0.00
243, -187500.02, -187500.02, -187500.02, -187500.02, -187500.02, -187500.02, -176380.72, -38258.88, 0.00, 0.00, 0.00
244, -187500.02, -187500.02, -187500.02, -187500.02, -187500.02, -187500.02, -176628.16, -38853.03, 0.00, 0.00, 0.00
245, -187500.02, -187500.02, -187500.02, -187500.02, -187500.02, -187500.02, -178705.25, -39307.24, 0.00, 0.00, 0.00
246, -187500.02, -187500.02, -187500.02, -187500.02, -187500.02, -187500.02, -178696.05, -38786.00, 0.00, 0.00, 0.00
247, -187500.02, -187500.02, -187500.02, -187500.02, -187500.02, -187500.02, -176559.47, -38248.39, 0.03, 0.88, 0.46
248, -187500.02, -187500.02, -187500.02, -187500.02, -187500.02, -187500.02, -176250.78, -38715.48, 0.00, 0.00, 0.00
249, -187500.02, -187500.02, -187500.02, -187500.02, -187500.02, -187500.02, -178307.09, -39306.17, 0.00, 0.00, 0.00
250, -187500.02, -187500.02, -187500.02, -187500.02, -187500.02, -187500.02, -178845.67, -38913.71, 0.00, 0.00, 0.00
251, -187500.02, -187500.02, -187500.02, -187500.02, -187500.02, -187500.02, -176819.86, -38265.85, 0.00, 0.00, 0.00
252, -187500.02, -187500.02, -187500.02, -187500.02, -187500.02, -187500.02, -175973.27, -38592.68, 0.00, 0.00, 0.00
253, -187500.02, -187500.02, -187500.02, -187500.02, -187500.02, -187500.02, -177844.11, -39280.91, 0.00, 0.00, 0.00
254, -187500.02, -187500.02, -187500.02, -187500.02, -187500.02, -187500.02, -178861.42, -39069.55, 0.00, 0.00, 0.00
255, -187500.02, -187500.02, -187500.02, -187500.02, -187500.02, -187500.02, -177075.28, -38338.49, 0.00, 0.00, 0.00
0, -187500.02, -187500.02, -187500.02, -187500.02, -187500.02, -187500.02, -175739.41, -38448.51, 0.00, 0.00, 0.00
1, -187500.02, -187500.02, -187500.02, -187500.02, -187500.02, -187500.02, -177333.80, -39202.21, 0.03, 0.88, 0.46
2, -187500.02, -187500.02, -187500.02, -187500.02, -187500.02, -187500.02, -178825.27, -39175.72, 0.00, 0.00, 0.00
3, -187500.02, -187500.02, -187500.02, -187500.02, -187500.02, -187500.02, -177408.30, -38426.43, 0.00, 0.00, 0.00
4, -187500.02, -187500.02, -187500.02, -187500.02, -187500.02, -187500.02, -175704.95, -38367.75, 0.00, 0.00, 0.00
5, -187500.02, -187500.02, -187500.02, -187500.02, -187500.02, -187500.02, -176866.86, -39090.11, 0.00, 0.00, 0.00
6, -187500.02, -187500.02, -187500.02, -187500.02, -187500.02, -187500.02, -178656.95, -39249.26, 0.00, 0.00, 0.00
7, -187500.02, -187500.02, -187500.02, -187500.02, -187500.02, -187500.02, -177711.81, -38547.64, 0.00, 0.00, 0.00
8, -187500.02, -187500.02, -187500.02, -187500.02, -187500.02, -187500.02, -175726.89, -38297.05, 0.00, 0.00, 0.00
29, -187500.02, -187500.02, -187500.02, -187500.02, -187500.02, -187500.02, -175291.47, -38406.02, 0.00, 0.00, 0.00
30, -187500.02, -187500.02, -187500.02, -187500.02, -187500.02, -187500.02, -176374.64, -39133.57, 0.00, 0.00, 0.00
31, -187500.02, -187500.02, -187500.02, -187500.02, -187500.02, -187500.02, -178204.91, -39318.55, 0.03, 0.89, 0.45
32, -187500.02, -187500.02, -187500.02, -187500.02, -187500.02, -187500.02, -177369.48, -38642.01, 0.00, 0.00, 0.00
33, -187500.02, -187500.02, -187500.02, -187500.02, -187500.02, -187500.02, -175366.44, -38348.21, 0.00, 0.00, 0.00
34, -187500.02, -187500.02, -187500.02, -187500.02, -187500.02, -187500.02, -175927.83, -38987.03, 0.00, 0.00, 0.00
35, -187500.02, -187500.02, -187500.02, -187500.02, -187500.02, -187500.02, -177972.94, -39355.99, 0.00, 0.00, 0.00
36, -187500.02, -187500.02, -187500.02, -187500.02, -187500.02, -187500.02, -177637.83, -38753.54, 0.00, 0.00, 0.00
37, -187500.02, -187500.02, -187500.02, -187500.02, -187500.02, -187500.02, -175507.03, -38309.23, 0.00, 0.00, 0.00
38, -187500.02, -187500.02, -187500.02, -187500.02, -187500.02, -187500.02, -175540.33, -38868.79, 0.00, 0.00, 0.00
39, -187500.02, -187500.02, -187500.02, -187500.02, -187500.02, -187500.02, -177638.58, -39395.30, 0.00, 0.00, 0.00
40, -187500.02, -187500.02, -187500.02, -187500.02, -187500.02, -187500.02, -177861.97, -38888.41, 0.00, 0.00, 0.00
41, -187500.02, -187500.02, -187500.02, -187500.02, -187500.02, -187500.02, -175774.20, -38287.66, 0.03, 0.90, 0.44
42, -187500.02, -187500.02, -187500.02, -187500.02, -187500.02, -187500.02, -175268.31, -38704.55, 0.00, 0.00, 0.00
43, -187500.02, -187500.02, -187500.02, -187500.02, -187500.02, -187500.02, -177282.72, -39332.07, 0.00, 0.00, 0.00
44, -187500.02, -187500.02, -187500.02, -187500.02, -187500.02, -187500.02, -178025.16, -39013.43, 0.00, 0.00, 0.00
45, -187500.02, -187500.02, -187500.02, -187500.02, -187500.02, -187500.02, -176101.47, -38329.42, 0.00, 0.00, 0.00
46, -187500.02, -187500.02, -187500.02, -187500.02, -187500.02, -187500.02, -175051.17, -38567.17, 0.00, 0.00, 0.00
47, -187500.02, -187500.02, -187500.02, -187500.02, -187500.02, -187500.02, -176839.11, -39282.36, 0.00, 0.00, 0.00
48, -187500.02, -187500.02, -187500.02, -187500.02, -187500.02, -187500.02, -178066.66, -39147.34, 0.00, 0.00, 0.00
49, -187500.02, -187500.02, -187500.02, -187500.02, -187500.02, -187500.02, -176460.47, -38420.46, 0.00, 0.00, 0.00
50, -187500.02, -187500.02, -187500.02, -187500.02, -187500.02, -187500.02, -174990.58, -38463.11, 0.00, 0.00, 0.00
51, -187500.02, -187500.02, -187500.02, -187500.02, -187500.02, -187500.02, -176437.59, -39200.13, 0.03, 0.89, 0.45
52, -187500.02, -187500.02, -187500.02, -187500.02, -187500.02, -187500.02, -178057.83, -39237.35, 0.00, 0.00, 0.00
53, -187500.02, -187500.02, -187500.02, -187500.02, -187500.02, -187500.02, -176852.63, -38515.79, 0.00, 0.00, 0.00
54, -187500.02, -187500.02, -187500.02, -187500.02, -187500.02, -187500.02, -175006.95, -38367.80, 0.00, 0.00, 0.00
55, -187500.02, -187500.02, -187500.02, -187500.02, -187500.02, -187500.02, -175981.00, -39090.54, 0.00, 0.00, 0.00
56, -187500.02, -187500.02, -187500.02, -187500.02, -187500.02, -187500.02, -177913.20, -39325.93, 0.00, 0.00, 0.00
57, -187500.02, -187500.02, -187500.02, -187500.02, -187500.02, -187500.02, -177161.97, -38612.68, 0.00, 0.00, 0.00
78, -187500.02, -187500.02, -187500.02, -187500.02, -187500.02, -187500.02, -176709.95, -38540.02, 0.00, 0.00, 0.00
79, -187500.02, -187500.02, -187500.02, -187500.02, -187500.02, -187500.02, -174815.94, -38359.19, 0.00, 0.00, 0.00
80, -187500.02, -187500.02, -187500.02, -187500.02, -187500.02, -187500.02, -175694.03, -39066.13, 0.03, 0.88, 0.46
81, -187500.02, -187500.02, -187500.02, -187500.02, -187500.02, -187500.02, -177673.34, -39340.16, 0.00, 0.00, 0.00
82, -187500.02, -187500.02, -187500.02, -187500.02, -187500.02, -187500.02, -177038.75, -38663.35, 0.00, 0.00, 0.00
83, -187500.02, -187500.02, -187500.02, -187500.02, -187500.02, -187500.02, -174953.61, -38295.20, 0.00, 0.00, 0.00
84, -187500.02, -187500.02, -187500.02, -187500.02, -187500.02, -187500.02, -175313.22, -38922.48, 0.00, 0.00, 0.00
85, -187500.02, -187500.02, -187500.02, -187500.02, -187500.02, -187500.02, -177396.20, -39365.02, 0.00, 0.00, 0.00
86, -187500.02, -187500.02, -187500.02, -187500.02, -187500.02, -187500.02, -177326.78, -38824.02, 0.00, 0.00, 0.00
87, -187500.02, -187500.02, -187500.02, -187500.02, -187500.02, -187500.02, -175189.09, -38285.00, 0.00, 0.00, 0.00
88, -187500.02, -187500.02, -187500.02, -187500.02, -187500.02, -187500.02, -174983.16, -38775.34, 0.00, 0.00, 0.00
89, -187500.02, -187500.02, -187500.02, -187500.02, -187500.02, -187500.02, -177052.67, -39336.79, 0.00, 0.00, 0.00
90, -187500.02, -187500.02, -187500.02, -187500.02, -187500.02, -187500.02, -177477.06, -38935.78, 0.03, 0.88, 0.47
91, -187500.02, -187500.02, -187500.02, -187500.02, -187500.02, -187500.02, -175440.11, -38323.00, 0.00, 0.00, 0.00
92, -187500.02, -187500.02, -187500.02, -187500.02, -187500.02, -187500.02, -174679.81, -38646.88, 0.00, 0.00, 0.00
93, -187500.02, -187500.02, -187500.02, -187500.02, -187500.02, -187500.02, -176617.20, -39321.37, 0.00, 0.00, 0.00
94, -187500.02, -187500.02, -187500.02, -187500.02, -187500.02, -187500.02, -177606.22, -39081.35, 0.00, 0.00, 0.00
95, -187500.02, -187500.02, -187500.02, -187500.02, -187500.02, -187500.02, -175810.70, -38368.36, 0.00, 0.00, 0.00
96, -187500.02, -187500.02, -187500.02, -187500.02, -187500.02, -187500.02, -174542.91, -38518.89, 0.00, 0.00, 0.00
97, -187500.02, -187500.02, -187500.02, -187500.02, -187500.02, -187500.02, -176188.31, -39270.76, 0.00, 0.00, 0.00
98, -187500.02, -187500.02, -187500.02, -187500.02, -187500.02, -187500.02, -177598.39, -39213.27, 0.00, 0.00, 0.00
99, -187500.02, -187500.02, -187500.02, -187500.02, -187500.02, -187500.02, -176125.75, -38485.16, 0.00, 0.00, 0.00
100, -187500.02, -187500.02, -187500.02, -187500.02, -187500.02, -187500.02, -174465.94, -38464.02, 0.03, 0.88, 0.47
101, -187500.02, -187500.02, -187500.02, -187500.02, -187500.02, -187500.02, -175740.30, -39191.37, 0.00, 0.00, 0.00
102, -187500.02, -187500.02, -187500.02, -187500.02, -187500.02, -187500.02, -177523.97, -39298.03, 0.00, 0.00, 0.00
103, -187500.02, -187500.02, -187500.02, -187500.02, -187500.02, -187500.02, -176490.39, -38575.85, 0.00, 0.00, 0.00
104, -187500.02, -187500.02, -187500.02, -187500.02, -187500.02, -187500.02, -174540.20, -38350.45, 0.00, 0.00, 0.00
105, -187500.02, -187500.02, -187500.02, -187500.02, -187500.02, -187500.02, -175285.70, -39029.21, 0.00, 0.00, 0.00
106, -187500.02, -187500.02, -187500.02, -187500.02, -187500.02, -187500.02, -177290.83, -39351.38, 0.00, 0.00, 0.00
107, -187500.02, -187500.02, -187500.02, -187500.02, -187500.02, -187500.02, -176758.61, -38717.73, 0.00, 0.00, 0.00
108, -187500.02, -187500.02, -187500.02, -187500.02, -187500.02, -187500.02, -174680.52, -38350.74, 0.00, 0.00, 0.00
109, -187500.02, -187500.02, -187500.02, -187500.02, -187500.02, -187500.02, -174917.19, -38939.60, 0.00, 0.00, 0.00
110, -187500.02, -187500.02, -187500.02, -187500.02, -187500.02, -187500.02, -177031.84, -39397.88, 0.03, 0.89, 0.47
111, -187500.02, -187500.02, -187500.02, -187500.02, -187500.02, -187500.02, -177076.50, -38867.34, 0.00, 0.00, 0.00
112, -187500.02, -187500.02, -187500.02, -187500.02, -187500.02, -187500.02, -174962.78, -38309.59, 0.00, 0.00, 0.00
113, -187500.02, -187500.02, -187500.02, -187500.02, -187500.02, -187500.02, -174600.53, -38754.77, 0.00, 0.00, 0.00
114, -187500.02, -187500.02, -187500.02, -187500.02, -187500.02, -187500.02, -176669.20, -39371.34, 0.00, 0.00, 0.00
115, -187500.02, -187500.02, -187500.02, -187500.02, -187500.02, -187500.02, -177224.94, -38984.70, 0.00, 0.00, 0.00
116, -187500.02, -187500.02, -187500.02, -187500.02, -187500.02, -187500.02, -175246.67, -38340.10, 0.00, 0.00, 0.00
117, -187500.02, -187500.02, -187500.02, -187500.02, -187500.02, -187500.02, -174379.94, -38624.33, 0.00, 0.00, 0.00
118, -187500.02, -187500.02, -187500.02, -187500.02, -187500.02, -187500.02, -176273.39, -39322.11, 0.00, 0.00, 0.00
119, -187500.02, -187500.02, -187500.02, -187500.02, -187500.02, -187500.02, -177341.06, -39117.54, 0.00, 0.00, 0.00
120, -187500.02, -187500.02, -187500.02, -187500.02, -187500.02, -187500.02, -175585.64, -38400.95, 0.02, 0.88, 0.47
121, -187500.02, -187500.02, -187500.02, -187500.02, -187500.02, -187500.02, -174261.06, -38524.41, 0.00, 0.00, 0.00
122, -187500.02, -187500.02, -187500.02, -187500.02, -187500.02, -187500.02, -175857.91, -39244.03, 0.00, 0.00, 0.00
123, -187500.02, -187500.02, -187500.02, -187500.02, -187500.02, -187500.02, -177348.22, -39216.96, 0.00, 0.00, 0.00
124, -187500.02, -187500.02, -187500.02, -187500.02, -187500.02, -187500.02, -175979.45, -38500.81, 0.00, 0.00, 0.00
125, -187500.02, -187500.02, -187500.02, -187500.02, -187500.02, -187500.02, -174264.45, -38418.71, 0.00, 0.00, 0.00
126, -187500.02, -187500.02, -187500.02, -187500.02, -187500.02, -187500.02, -175437.98, -39138.28, 0.00, 0.00, 0.00
127, -187500.02, -187500.02, -187500.02, -187500.02, -187500.02, -187500.02, -177258.98, -39299.59, 0.00, 0.00, 0.00
128, -187500.02, -187500.02, -187500.02, -187500.02, -187500.02, -187500.02, -176327.08, -38599.81, 0.00, 0.00, 0.00
129, -187500.02, -187500.02, -187500.02, -187500.02, -187500.02, -187500.02, -174347.47, -38351.95, 0.00, 0.00, 0.00
130, -187500.02, -187500.02, -187500.02, -187500.02, -187500.02, -187500.02, -175030.88, -39034.91, 0.03, 0.88, 0.46
131, -187500.02, -187500.02, -187500.02, -187500.02, -187500.02, -187500.02, -177063.25, -39370.47, 0.00, 0.00, 0.00
132, -187500.02, -187500.02, -187500.02, -187500.02, -187500.02, -187500.02, -176651.11, -38745.41, 0.00, 0.00, 0.00
133, -187500.02, -187500.02, -187500.02, -187500.02, -187500.02, -187500.02, -174524.03, -38315.70, 0.00, 0.00, 0.00
134, -187500.02, -187500.02, -187500.02, -187500.02, -187500.02, -187500.02, -174658.14, -38900.48, 0.00, 0.00, 0.00
135, -187500.02, -187500.02, -187500.02, -187500.02, -187500.02, -187500.02, -176785.02, -39406.64, 0.00, 0.00, 0.00
136, -187500.02, -187500.02, -187500.02, -187500.02, -187500.02, -187500.02, -176914.50, -38900.82, 0.00, 0.00, 0.00
137, -187500.02, -187500.02, -187500.02, -187500.02, -187500.02, -187500.02, -174769.69, -38314.29, 0.00, 0.00, 0.00
138, -187500.02, -187500.02, -187500.02, -187500.02, -187500.02, -187500.02, -174320.89, -38754.93, 0.00, 0.00, 0.00
139, -187500.02, -187500.02, -187500.02, -187500.02, -187500.02, -187500.02, -176386.97, -39386.52, 0.00, 0.00, 0.00
140, -187500.02, -187500.02, -187500.02, -187500.02, -187500.02, -187500.02, -177049.50, -39041.43, 0.03, 0.89, 0.47
141, -187500.02, -187500.02, -187500.02, -187500.02, -187500.02, -187500.02, -175088.14, -38377.90, 0.00, 0.00, 0.00
142, -187500.02, -187500.02, -187500.02, -187500.02, -187500.02, -187500.02, -174108.33, -38631.79, 0.00, 0.00, 0.00
143, -187500.02, -187500.02, -187500.02, -187500.02, -187500.02, -187500.02, -175964.48, -39349.55, 0.00, 0.00, 0.00
144, -187500.02, -187500.02, -187500.02, -187500.02, -187500.02, -187500.02, -177117.88, -39174.71, 0.00, 0.00, 0.00
145, -187500.02, -187500.02, -187500.02, -187500.02, -187500.02, -187500.02, -175412.55, -38448.00, 0.00, 0.00, 0.00
146, -187500.02, -187500.02, -187500.02, -187500.02, -187500.02, -187500.02, -173973.05, -38519.23, 0.00, 0.00, 0.00
147, -187500.02, -187500.02, -187500.02, -187500.02, -187500.02, -187500.02, -175482.83, -39269.73, 0.00, 0.00, 0.00
148, -187500.02, -187500.02, -187500.02, -187500.02, -187500.02, -187500.02, -177053.44, -39282.88, 0.00, 0.00, 0.00
149, -187500.02, -187500.02, -187500.02, -187500.02, -187500.02, -187500.02, -175743.92, -38548.78, 0.04, 0.88, 0.46
150, -187500.02, -187500.02, -187500.02, -187500.02, -187500.02, -187500.02, -173944.67, -38446.09, 0.00, 0.00, 0.00
151, -187500.02, -187500.02, -187500.02, -187500.02, -187500.02, -187500.02, -175015.45, -39189.40, 0.00, 0.00, 0.00
152, -187500.02, -187500.02, -187500.02, -187500.02, -187500.02, -187500.02, -176889.39, -39385.88, 0.00, 0.00, 0.00
153, -187500.02, -187500.02, -187500.02, -187500.02, -187500.02, -187500.02, -176043.25, -38683.02, 0.00, 0.00, 0.00
154, -187500.02, -187500.02, -187500.02, -187500.02, -187500.02, -187500.02, -174004.55, -38390.10, 0.00, 0.00, 0.00
155, -187500.02, -187500.02, -187500.02, -187500.02, -187500.02, -187500.02, -174527.47, -39060.03, 0.00, 0.00, 0.00
156, -187500.02, -187500.02, -187500.02, -187500.02, -187500.02, -187500.02, -176576.03, -39437.80, 0.00, 0.00, 0.00
157, -187500.02, -187500.02, -187500.02, -187500.02, -187500.02, -187500.02, -176269.89, -38830.37, 0.00, 0.00, 0.00
158, -187500.02, -187500.02, -187500.02, -187500.02, -187500.02, -187500.02, -174122.41, -38356.31, 0.00, 0.00, 0.00
159, -187500.02, -187500.02, -187500.02, -187500.02, -187500.02, -187500.02, -174096.88, -38920.46, 0.04, 0.88, 0.46
160, -187500.02, -187500.02, -187500.02, -187500.02, -187500.02, -187500.02, -176222.58, -39464.24, 0.00, 0.00, 0.00
161, -187500.02, -187500.02, -187500.02, -187500.02, -187500.02, -187500.02, -176470.28, -38982.38, 0.00, 0.00, 0.00
162, -187500.02, -187500.02, -187500.02, -187500.02, -187500.02, -187500.02, -174366.42, -38385.97, 0.00, 0.00, 0.00
163, -187500.02, -187500.02, -187500.02, -187500.02, -187500.02, -187500.02, -173793.55, -38776.57, 0.00, 0.00, 0.00
