%OpenBCI Raw EEG Data
%
%Sample Rate = 250.0 Hz
%First Column = SampleIndex
%Other Columns = EEG data in microvolts followed by Accel Data (in G) interleaved with Aux Data
138, 187500.00, 107175.07, 8344.67, -9686.06, 6890.93, -19784.87, 6267.27, -10850.30, 0.00, 0.00, 0.00
139, 187500.00, 107004.88, 8482.00, -9515.41, 6803.56, -19623.42, 6415.24, -10693.12, 0.00, 0.00, 0.00
140, 187500.00, 107030.66, 8511.79, -9500.76, 6870.23, -19608.31, 6440.52, -10675.33, 0.00, 0.00, 0.00
141, 187500.00, 107167.09, 8407.09, -9633.62, 6960.36, -19732.25, 6329.70, -10795.67, 0.00, 0.00, 0.00
142, 187500.00, 107202.49, 8336.84, -9696.12, 6916.77, -19793.18, 6268.41, -10856.35, 0.12, 0.96, 0.21
143, 187500.00, 107033.02, 8458.35, -9535.39, 6816.37, -19633.30, 6409.90, -10703.00, 0.00, 0.00, 0.00
144, 187500.00, 107021.36, 8516.30, -9487.00, 6861.61, -19581.20, 6466.74, -10650.18, 0.00, 0.00, 0.00
145, 187500.00, 107144.91, 8419.28, -9612.84, 6952.71, -19696.40, 6358.02, -10766.08, 0.00, 0.00, 0.00
146, 187500.00, 107222.37, 8324.93, -9709.44, 6930.27, -19795.71, 6258.60, -10865.79, 0.00, 0.00, 0.00
147, 187500.00, 107070.77, 8420.71, -9573.36, 6815.25, -19666.27, 6365.24, -10743.77, 0.00, 0.00, 0.00
148, 187500.00, 107018.95, 8507.70, -9484.36, 6825.40, -19582.41, 6449.77, -10659.01, 0.00, 0.00, 0.00
149, 187500.00, 107136.78, 8437.65, -9584.85, 6926.29, -19677.63, 6366.76, -10749.47, 0.00, 0.00, 0.00
150, 187500.00, 107245.21, 8329.85, -9706.11, 6932.55, -19798.44, 6255.31, -10865.47, 0.00, 0.00, 0.00
151, 187500.00, 107123.99, 8401.04, -9603.40, 6821.48, -19697.74, 6335.36, -10770.95, 0.00, 0.00, 0.00
152, 187500.00, 107025.27, 8510.90, -9485.45, 6808.90, -19579.70, 6451.52, -10653.36, 0.12, 0.96, 0.20
153, 187500.00, 107124.53, 8459.20, -9568.38, 6907.11, -19652.35, 6390.21, -10723.52, 0.00, 0.00, 0.00
154, 187500.00, 107254.53, 8348.00, -9702.40, 6938.34, -19781.45, 6271.56, -10848.67, 0.00, 0.00, 0.00
155, 187500.00, 107170.04, 8378.75, -9644.91, 6841.53, -19729.71, 6312.15, -10800.07, 0.00, 0.00, 0.00
156, 187500.00, 107030.92, 8505.24, -9502.33, 6801.70, -19591.46, 6445.75, -10661.25, 0.00, 0.00, 0.00
157, 187500.00, 107106.47, 8477.75, -9557.25, 6894.69, -19642.04, 6408.67, -10706.53, 0.00, 0.00, 0.00
158, 187500.00, 107244.20, 8360.76, -9697.50, 6947.21, -19779.10, 6281.94, -10840.51, 0.00, 0.00, 0.00
159, 187500.00, 107200.73, 8351.28, -9683.27, 6863.24, -19771.82, 6280.53, -10835.14, 0.00, 0.00, 0.00
160, 187500.00, 107039.33, 8488.83, -9516.08, 6794.86, -19613.10, 6428.47, -10678.59, 0.00, 0.00, 0.00
161, 187500.00, 107084.70, 8495.14, -9529.73, 6874.70, -19625.35, 6426.48, -10686.86, 0.00, 0.00, 0.00
162, 187500.00, 107225.96, 8387.45, -9662.44, 6950.07, -19753.15, 6309.32, -10813.48, 0.13, 0.96, 0.21
163, 187500.00, 107236.20, 8347.73, -9691.63, 6893.01, -19787.19, 6272.66, -10848.31, 0.00, 0.00, 0.00
164, 187500.00, 107057.79, 8481.01, -9528.26, 6799.98, -19629.84, 6414.97, -10693.75, 0.00, 0.00, 0.00
165, 187500.00, 107071.42, 8518.52, -9505.26, 6863.95, -19605.65, 6448.84, -10667.53, 0.00, 0.00, 0.00
166, 187500.00, 107208.46, 8419.28, -9635.14, 6953.92, -19728.01, 6336.72, -10788.56, 0.00, 0.00, 0.00
167, 187500.00, 107255.87, 8343.82, -9710.09, 6914.31, -19801.16, 6261.64, -10862.99, 0.00, 0.00, 0.00
168, 187500.00, 107085.73, 8463.17, -9554.43, 6810.67, -19646.78, 6397.11, -10715.94, 0.00, 0.00, 0.00
169, 187500.00, 107065.16, 8534.86, -9490.10, 6859.03, -19579.66, 6472.93, -10645.78, 0.00, 0.00, 0.00
170, 187500.00, 107181.84, 8440.93, -9612.79, 6957.23, -19689.83, 6372.91, -10754.90, 0.00, 0.00, 0.00
171, 187500.00, 107267.27, 8343.30, -9713.89, 6940.06, -19785.74, 6280.04, -10851.24, 0.00, 0.00, 0.00
172, 187500.00, 107126.37, 8436.64, -9580.90, 6834.87, -19654.27, 6392.53, -10726.51, 0.13, 0.96, 0.21
173, 187500.00, 107067.27, 8524.31, -9486.82, 6848.60, -19559.21, 6488.71, -10632.46, 0.00, 0.00, 0.00
174, 187500.00, 107185.91, 8449.67, -9585.48, 6944.91, -19646.94, 6409.65, -10720.72, 0.00, 0.00, 0.00
175, 187500.00, 107308.13, 8337.40, -9710.71, 6953.56, -19768.37, 6293.33, -10840.86, 0.00, 0.00, 0.00
176, 187500.00, 107199.39, 8391.13, -9623.59, 6850.68, -19683.33, 6360.90, -10760.93, 0.00, 0.00, 0.00
177, 187500.00, 107105.82, 8507.30, -9492.20, 6833.89, -19554.47, 6489.40, -10631.74, 0.00, 0.00, 0.00
178, 187500.00, 107213.13, 8467.56, -9560.71, 6933.42, -19613.65, 6440.05, -10689.10, 0.00, 0.00, 0.00
179, 187500.00, 107346.46, 8347.17, -9704.39, 6966.66, -19750.18, 6308.47, -10825.53, 0.00, 0.00, 0.00
180, 187500.00, 107275.31, 8358.43, -9664.58, 6863.19, -19710.93, 6333.05, -10792.67, 0.00, 0.00, 0.00
181, 187500.00, 107141.01, 8488.95, -9512.43, 6810.69, -19559.47, 6473.65, -10645.60, 0.00, 0.00, 0.00
182, 187500.00, 107209.49, 8465.41, -9561.03, 6896.81, -19599.98, 6441.77, -10684.74, 0.13, 0.96, 0.22
183, 187500.00, 107343.49, 8344.73, -9705.24, 6947.95, -19737.75, 6312.65, -10820.34, 0.00, 0.00, 0.00
184, 187500.00, 107313.96, 8316.48, -9715.45, 6865.14, -19748.95, 6292.04, -10835.28, 0.00, 0.00, 0.00
185, 187500.00, 107148.91, 8452.45, -9551.37, 6788.45, -19588.58, 6439.78, -10679.71, 0.00, 0.00, 0.00
186, 187500.00, 107192.13, 8468.61, -9551.06, 6865.61, -19586.65, 6453.37, -10674.14, 0.00, 0.00, 0.00
187, 187500.00, 107334.33, 8358.66, -9684.38, 6946.23, -19715.51, 6334.69, -10801.06, 0.00, 0.00, 0.00
188, 187500.00, 107354.04, 8299.07, -9729.42, 6888.65, -19766.85, 6281.04, -10854.25, 0.00, 0.00, 0.00
189, 187500.00, 107186.53, 8428.15, -9560.31, 6791.71, -19607.55, 6425.99, -10700.65, 0.00, 0.00, 0.00
190, 187500.00, 107193.69, 8469.86, -9527.72, 6849.67, -19578.41, 6464.88, -10668.51, 0.00, 0.00, 0.00
191, 187500.00, 107327.95, 8371.47, -9657.52, 6943.66, -19702.37, 6354.02, -10789.21, 0.00, 0.00, 0.00
192, 187500.00, 107388.82, 8292.50, -9738.36, 6914.80, -19785.34, 6277.73, -10871.08, 0.12, 0.96, 0.22
193, 187500.00, 107233.98, 8414.20, -9577.95, 6813.24, -19631.40, 6412.80, -10725.31, 0.00, 0.00, 0.00
194, 187500.00, 107197.89, 8490.26, -9504.95, 6840.51, -19562.76, 6485.72, -10657.07, 0.00, 0.00, 0.00
195, 187500.00, 107323.80, 8412.19, -9609.71, 6939.84, -19662.27, 6397.45, -10755.99, 0.00, 0.00, 0.00
196, 187500.00, 107411.10, 8306.91, -9722.65, 6937.11, -19774.52, 6290.65, -10865.52, 0.00, 0.00, 0.00
197, 187500.00, 107270.16, 8389.28, -9602.22, 6826.58, -19659.05, 6390.94, -10754.63, 0.00, 0.00, 0.00
198, 187500.00, 107198.54, 8496.10, -9488.11, 6832.37, -19546.42, 6504.67, -10642.54, 0.00, 0.00, 0.00
199, 187500.00, 107312.27, 8437.45, -9574.88, 6935.01, -19622.73, 6437.50, -10718.22, 0.00, 0.00, 0.00
200, 187500.00, 107424.29, 8318.56, -9714.16, 6960.47, -19755.97, 6311.89, -10849.00, 0.00, 0.00, 0.00
201, 187500.00, 107315.28, 8364.67, -9639.35, 6853.89, -19681.65, 6371.34, -10780.78, 0.00, 0.00, 0.00
202, 187500.00, 107195.81, 8489.48, -9504.12, 6828.30, -19546.22, 6503.49, -10645.49, 0.13, 0.96, 0.22
203, 187500.00, 107282.23, 8453.56, -9571.55, 6923.79, -19604.98, 6457.96, -10700.50, 0.00, 0.00, 0.00
204, 187500.00, 107409.56, 8328.93, -9716.68, 6964.11, -19744.28, 6326.62, -10836.08, 0.00, 0.00, 0.00
205, 187500.00, 107354.51, 8337.18, -9679.58, 6869.90, -19709.75, 6346.89, -10805.82, 0.00, 0.00, 0.00
206, 187500.00, 107205.84, 8465.23, -9520.50, 6815.56, -19554.45, 6491.28, -10653.85, 0.00, 0.00, 0.00
207, 187500.00, 107268.68, 8452.40, -9551.26, 6893.68, -19581.71, 6469.11, -10680.74, 0.00, 0.00, 0.00
208, 187500.00, 107403.34, 8333.00, -9693.15, 6949.43, -19719.07, 6337.97, -10817.33, 0.00, 0.00, 0.00
209, 187500.00, 107375.14, 8297.77, -9710.40, 6872.13, -19739.76, 6308.62, -10841.22, 0.00, 0.00, 0.00
210, 187500.00, 107203.63, 8433.18, -9542.05, 6785.16, -19577.96, 6454.49, -10686.23, 0.00, 0.00, 0.00
211, 187500.00, 107223.68, 8450.79, -9542.76, 6852.78, -19577.42, 6465.53, -10682.01, 0.00, 0.00, 0.00
212, 187500.00, 107361.05, 8348.49, -9675.85, 6933.49, -19703.08, 6351.31, -10805.19, 0.13, 0.96, 0.22
213, 187500.00, 107393.73, 8288.32, -9734.16, 6886.01, -19763.05, 6290.59, -10865.50, 0.00, 0.00, 0.00
214, 187500.00, 107216.35, 8410.83, -9578.21, 6786.19, -19611.22, 6426.22, -10718.44, 0.00, 0.00, 0.00
215, 187500.00, 107218.56, 8469.88, -9526.42, 6840.59, -19560.84, 6489.72, -10661.63, 0.00, 0.00, 0.00
216, 187500.00, 107352.43, 8375.85, -9647.15, 6937.65, -19675.05, 6392.08, -10769.56, 0.00, 0.00, 0.00
217, 187500.00, 107429.43, 8287.45, -9734.77, 6915.83, -19766.07, 6307.53, -10858.97, 0.00, 0.00, 0.00
218, 187500.00, 107271.78, 8390.29, -9592.07, 6812.77, -19633.26, 6426.53, -10728.48, 0.00, 0.00, 0.00
219, 187500.00, 107222.61, 8473.72, -9505.33, 6839.25, -19552.52, 6512.69, -10645.00, 0.00, 0.00, 0.00
220, 187500.00, 107344.95, 8403.09, -9603.05, 6937.06, -19646.09, 6427.33, -10739.05, 0.00, 0.00, 0.00
221, 187500.00, 107440.00, 8298.64, -9721.04, 6933.02, -19765.67, 6308.87, -10860.29, 0.00, 0.00, 0.00
222, 187500.00, 107302.74, 8370.10, -9614.07, 6819.65, -19666.09, 6388.44, -10769.85, 0.13, 0.96, 0.22
223, 187500.00, 107217.63, 8482.44, -9490.80, 6813.46, -19547.85, 6502.10, -10654.72, 0.00, 0.00, 0.00
224, 187500.00, 107313.80, 8425.69, -9574.32, 6913.60, -19624.76, 6434.69, -10731.36, 0.00, 0.00, 0.00
225, 187500.00, 107427.09, 8307.54, -9712.41, 6941.24, -19757.13, 6310.03, -10861.72, 0.00, 0.00, 0.00
226, 187500.00, 107329.34, 8339.95, -9649.87, 6836.68, -19696.24, 6355.36, -10805.28, 0.00, 0.00, 0.00
227, 187500.00, 107204.20, 8467.44, -9501.19, 6801.55, -19550.38, 6494.32, -10661.31, 0.00, 0.00, 0.00
228, 187500.00, 107279.92, 8438.63, -9556.20, 6899.60, -19596.94, 6458.11, -10705.19, 0.00, 0.00, 0.00
229, 187500.00, 107407.15, 8318.16, -9700.39, 6944.53, -19736.41, 6326.30, -10842.54, 0.00, 0.00, 0.00
230, 187500.00, 107357.50, 8314.20, -9681.64, 6856.11, -19721.75, 6331.18, -10829.55, 0.00, 0.00, 0.00
231, 187500.00, 107210.16, 8451.82, -9518.33, 6796.92, -19561.82, 6483.39, -10671.46, 0.13, 0.96, 0.22
232, 187500.00, 107265.99, 8440.93, -9549.00, 6881.39, -19586.81, 6472.62, -10692.05, 0.00, 0.00, 0.00
233, 187500.00, 107409.98, 8332.28, -9686.17, 6944.44, -19717.01, 6350.58, -10819.67, 0.00, 0.00, 0.00
234, 187500.00, 107405.63, 8289.77, -9718.45, 6868.29, -19751.28, 6310.84, -10854.90, 0.00, 0.00, 0.00
235, 187500.00, 107234.86, 8418.11, -9557.65, 6779.35, -19594.10, 6453.13, -10702.39, 0.00, 0.00, 0.00
236, 187500.00, 107264.41, 8451.73, -9536.55, 6847.32, -19570.72, 6484.91, -10676.65, 0.00, 0.00, 0.00
237, 187500.00, 107399.88, 8350.46, -9668.22, 6931.86, -19692.11, 6371.57, -10796.83, 0.00, 0.00, 0.00
238, 187500.00, 107434.05, 8278.21, -9737.54, 6885.34, -19760.73, 6302.83, -10866.08, 0.00, 0.00, 0.00
239, 187500.00, 107265.88, 8400.34, -9577.28, 6788.09, -19605.79, 6443.36, -10716.25, 0.00, 0.00, 0.00
240, 187500.00, 107247.11, 8459.35, -9525.44, 6834.18, -19554.51, 6504.67, -10660.22, 0.00, 0.00, 0.00
241, 187500.00, 107371.61, 8371.09, -9645.56, 6933.85, -19666.12, 6408.25, -10767.75, 0.13, 0.96, 0.22
242, 187500.00, 107453.13, 8278.17, -9744.60, 6918.56, -19763.70, 6318.26, -10862.48, 0.00, 0.00, 0.00
243, 187500.00, 107307.84, 8383.02, -9603.94, 6816.05, -19626.55, 6439.92, -10731.27, 0.00, 0.00, 0.00
244, 187500.00, 107249.74, 8474.89, -9511.43, 6844.35, -19535.71, 6536.77, -10638.25, 0.00, 0.00, 0.00
245, 187500.00, 107367.80, 8408.21, -9607.99, 6944.91, -19627.58, 6456.10, -10727.09, 0.00, 0.00, 0.00
246, 187500.00, 107481.04, 8301.30, -9725.94, 6946.77, -19749.91, 6338.46, -10849.18, 0.00, 0.00, 0.00
247, 187500.00, 107357.21, 8361.25, -9625.33, 6834.94, -19659.48, 6407.60, -10767.95, 0.00, 0.00, 0.00
248, 187500.00, 107259.83, 8474.87, -9494.39, 6818.65, -19537.26, 6524.81, -10649.33, 0.00, 0.00, 0.00
249, 187500.00, 107359.72, 8427.32, -9567.89, 6916.61, -19605.14, 6464.30, -10716.75, 0.00, 0.00, 0.00
250, 187500.00, 107491.66, 8310.76, -9702.76, 6950.48, -19737.64, 6338.57, -10846.45, 0.00, 0.00, 0.00
251, 187500.00, 107410.12, 8330.52, -9653.54, 6849.89, -19692.42, 6370.69, -10806.91, 0.13, 0.96, 0.22
252, 187500.00, 107278.85, 8461.41, -9501.79, 6804.83, -19543.45, 6511.42, -10660.53, 0.00, 0.00, 0.00
253, 187500.00, 107353.44, 8440.93, -9547.73, 6894.86, -19583.48, 6481.65, -10694.86, 0.00, 0.00, 0.00
254, 187500.00, 107485.31, 8320.95, -9694.98, 6945.83, -19722.89, 6351.18, -10831.48, 0.00, 0.00, 0.00
255, 187500.00, 107445.41, 8303.09, -9694.38, 6863.13, -19722.13, 6342.73, -10833.31, 0.00, 0.00, 0.00
0, 187500.00, 107285.76, 8434.99, -9533.60, 6790.33, -19562.76, 6489.47, -10677.74, 0.00, 0.00, 0.00
1, 187500.00, 107341.88, 8439.64, -9547.95, 6867.53, -19571.99, 6491.91, -10681.47, 0.00, 0.00, 0.00
2, 187500.00, 107491.08, 8330.20, -9684.38, 6946.27, -19700.09, 6373.73, -10805.57, 0.00, 0.00, 0.00
3, 187500.00, 107510.39, 8281.88, -9722.09, 6880.43, -19740.43, 6325.25, -10848.02, 0.00, 0.00, 0.00
4, 187500.00, 107353.03, 8414.38, -9552.78, 6784.38, -19575.86, 6471.37, -10689.92, 0.00, 0.00, 0.00
5, 187500.00, 107366.24, 8449.54, -9531.97, 6846.21, -19555.16, 6499.62, -10667.79, 0.14, 0.96, 0.22
6, 187500.00, 107506.61, 8350.28, -9661.12, 6933.29, -19680.64, 6387.52, -10789.70, 0.00, 0.00, 0.00
7, 187500.00, 107571.50, 8278.10, -9733.63, 6900.72, -19756.66, 6317.68, -10863.24, 0.00, 0.00, 0.00
8, 187500.00, 107412.18, 8396.41, -9579.40, 6800.03, -19605.97, 6452.97, -10717.44, 0.00, 0.00, 0.00
9, 187500.00, 107385.58, 8462.17, -9520.73, 6841.62, -19546.13, 6518.75, -10656.46, 0.00, 0.00, 0.00
10, 187500.00, 107503.59, 8367.13, -9642.81, 6934.54, -19658.83, 6416.98, -10767.80, 0.00, 0.00, 0.00
11, 187500.00, 107593.45, 8269.99, -9745.34, 6926.22, -19762.88, 6319.31, -10869.45, 0.00, 0.00, 0.00
12, 187500.00, 107446.80, 8352.89, -9620.62, 6814.53, -19644.10, 6417.61, -10758.14, 0.00, 0.00, 0.00
13, 187500.00, 107376.81, 8448.83, -9514.98, 6815.52, -19542.93, 6516.20, -10657.78, 0.00, 0.00, 0.00
14, 187500.00, 107488.82, 8384.99, -9606.49, 6911.83, -19628.34, 6438.02, -10742.11, 0.00, 0.00, 0.00
15, 187500.00, 107614.23, 8272.89, -9729.02, 6930.76, -19750.58, 6323.06, -10863.22, 0.13, 0.96, 0.21
16, 187500.00, 107515.42, 8332.15, -9637.09, 6825.19, -19665.11, 6388.89, -10784.07, 0.00, 0.00, 0.00
17, 187500.00, 107406.27, 8450.52, -9505.28, 6795.47, -19539.58, 6506.06, -10660.84, 0.00, 0.00, 0.00
18, 187500.00, 107500.45, 8407.76, -9573.41, 6889.48, -19602.19, 6452.43, -10721.55, 0.00, 0.00, 0.00
19, 187500.00, 107641.57, 8293.19, -9709.44, 6928.39, -19737.42, 6324.31, -10854.61, 0.00, 0.00, 0.00
20, 187500.00, 107580.44, 8311.63, -9665.61, 6839.37, -19699.89, 6354.02, -10818.13, 0.00, 0.00, 0.00
21, 187500.00, 107443.11, 8447.39, -9507.40, 6790.24, -19547.16, 6500.85, -10664.73, 0.00, 0.00, 0.00
22, 187500.00, 107515.30, 8430.72, -9548.20, 6878.62, -19581.38, 6475.75, -10694.33, 0.00, 0.00, 0.00
23, 187500.00, 107659.54, 8316.93, -9690.31, 6937.74, -19715.94, 6353.24, -10824.93, 0.00, 0.00, 0.00
24, 187500.00, 107636.25, 8289.32, -9702.49, 6862.25, -19729.84, 6335.51, -10841.11, 0.00, 0.00, 0.00
25, 187500.00, 107475.81, 8424.10, -9537.56, 6786.30, -19567.10, 6486.21, -10682.43, 0.12, 0.96, 0.21
26, 187500.00, 107520.23, 8440.26, -9537.96, 6864.35, -19561.26, 6501.09, -10671.04, 0.00, 0.00, 0.00
27, 187500.00, 107658.36, 8325.87, -9679.33, 6944.87, -19692.31, 6379.59, -10799.38, 0.00, 0.00, 0.00
28, 187500.00, 107677.87, 8261.36, -9734.41, 6889.99, -19749.44, 6318.70, -10857.63, 0.00, 0.00, 0.00
29, 187500.00, 107508.89, 8390.80, -9566.88, 6788.18, -19587.82, 6465.09, -10703.18, 0.00, 0.00, 0.00
30, 187500.00, 107514.10, 8440.89, -9526.51, 6848.80, -19546.22, 6516.02, -10658.94, 0.00, 0.00, 0.00
31, 187500.00, 107650.78, 8347.95, -9650.12, 6937.11, -19661.91, 6407.08, -10772.71, 0.00, 0.00, 0.00
32, 187500.00, 107712.88, 8262.79, -9734.41, 6905.03, -19750.36, 6320.83, -10861.34, 0.00, 0.00, 0.00
33, 187500.00, 107548.99, 8369.74, -9587.38, 6794.86, -19611.00, 6442.33, -10728.93, 0.00, 0.00, 0.00
34, 187500.00, 107502.23, 8441.87, -9518.74, 6823.52, -19544.90, 6513.01, -10661.58, 0.00, 0.00, 0.00
35, 187500.00, 107629.95, 8365.79, -9621.40, 6922.89, -19641.55, 6424.90, -10757.02, 0.12, 0.96, 0.21
36, 187500.00, 107727.88, 8260.60, -9736.58, 6919.32, -19755.59, 6315.13, -10870.90, 0.00, 0.00, 0.00
37, 187500.00, 107594.21, 8342.92, -9618.92, 6811.16, -19643.29, 6411.55, -10761.94, 0.00, 0.00, 0.00
38, 187500.00, 107514.63, 8452.00, -9505.88, 6812.23, -19535.18, 6521.01, -10651.81, 0.00, 0.00, 0.00
39, 187500.00, 107614.88, 8390.24, -9598.29, 6907.99, -19622.64, 6445.97, -10736.01, 0.00, 0.00, 0.00
40, 187500.00, 107730.15, 8277.14, -9729.58, 6934.72, -19752.55, 6327.71, -10861.05, 0.00, 0.00, 0.00
41, 187500.00, 107634.89, 8322.92, -9649.47, 6830.36, -19679.68, 6386.16, -10791.33, 0.00, 0.00, 0.00
42, 187500.00, 107514.84, 8446.57, -9506.13, 6801.37, -19542.26, 6516.16, -10656.51, 0.00, 0.00, 0.00
43, 187500.00, 107605.95, 8412.55, -9564.74, 6897.41, -19594.77, 6471.66, -10707.80, 0.00, 0.00, 0.00
44, 187500.00, 107742.49, 8293.23, -9704.03, 6942.54, -19730.42, 6344.94, -10841.76, 0.00, 0.00, 0.00
45, 187500.00, 107684.09, 8292.38, -9674.48, 6851.12, -19704.76, 6358.80, -10821.35, 0.13, 0.96, 0.21
46, 187500.00, 107533.03, 8423.90, -9517.51, 6789.07, -19551.27, 6499.64, -10671.64, 0.00, 0.00, 0.00
47, 187500.00, 107589.56, 8412.64, -9548.71, 6866.10, -19579.03, 6477.96, -10696.32, 0.00, 0.00, 0.00
48, 187500.00, 107729.77, 8301.64, -9687.60, 6930.20, -19713.01, 6354.91, -10825.60, 0.00, 0.00, 0.00
49, 187500.00, 107725.28, 8270.30, -9707.23, 6855.84, -19735.83, 6326.28, -10849.18, 0.00, 0.00, 0.00
50, 187500.00, 107560.66, 8406.09, -9539.54, 6772.78, -19571.72, 6476.66, -10688.20, 0.00, 0.00, 0.00
51, 187500.00, 107583.03, 8427.52, -9535.16, 6844.13, -19564.32, 6494.05, -10677.83, 0.00, 0.00, 0.00
52, 187500.00, 107720.07, 8319.25, -9673.75, 6926.72, -19696.00, 6373.35, -10806.53, 0.00, 0.00, 0.00
53, 187500.00, 107756.82, 8258.28, -9729.47, 6879.69, -19756.68, 6314.99, -10865.81, 0.00, 0.00, 0.00
54, 187500.00, 107588.58, 8383.63, -9567.15, 6779.91, -19600.27, 6455.07, -10716.07, 0.13, 0.96, 0.20
55, 187500.00, 107572.93, 8431.32, -9529.53, 6826.51, -19564.26, 6498.77, -10676.44, 0.00, 0.00, 0.00
56, 187500.00, 107705.21, 8342.97, -9646.99, 6918.42, -19676.55, 6398.10, -10784.43, 0.00, 0.00, 0.00
57, 187500.00, 107785.34, 8261.47, -9731.32, 6902.02, -19764.44, 6315.69, -10871.31, 0.00, 0.00, 0.00
58, 187500.00, 107632.01, 8364.49, -9587.87, 6792.00, -19631.74, 6431.13, -10744.30, 0.00, 0.00, 0.00
59, 187500.00, 107578.41, 8448.38, -9502.87, 6816.23, -19550.49, 6515.15, -10661.92, 0.00, 0.00, 0.00
60, 187500.00, 107689.90, 8372.99, -9604.57, 6910.85, -19642.76, 6431.02, -10752.89, 0.00, 0.00, 0.00
61, 187500.00, 107792.45, 8264.54, -9722.25, 6916.37, -19757.06, 6320.65, -10866.23, 0.00, 0.00, 0.00
62, 187500.00, 107667.88, 8332.19, -9618.18, 6809.55, -19655.36, 6404.40, -10771.39, 0.00, 0.00, 0.00
63, 187500.00, 107576.95, 8446.08, -9493.50, 6805.86, -19533.44, 6525.95, -10648.19, 0.00, 0.00, 0.00
64, 187500.00, 107675.50, 8398.09, -9572.80, 6904.43, -19604.60, 6460.32, -10716.88, 0.13, 0.97, 0.21
65, 187500.00, 107793.02, 8281.79, -9709.93, 6928.21, -19738.22, 6333.88, -10848.53, 0.00, 0.00, 0.00
66, 187500.00, 107700.45, 8312.81, -9647.35, 6821.10, -19680.51, 6375.41, -10796.61, 0.00, 0.00, 0.00
67, 187500.00, 107567.90, 8435.17, -9503.11, 6779.66, -19540.92, 6504.11, -10662.38, 0.00, 0.00, 0.00
68, 187500.00, 107646.35, 8403.99, -9557.20, 6866.86, -19591.86, 6461.13, -10713.73, 0.00, 0.00, 0.00
69, 187500.00, 107778.48, 8280.38, -9701.98, 6912.79, -19735.25, 6327.06, -10855.33, 0.00, 0.00, 0.00
70, 187500.00, 107740.70, 8272.36, -9683.87, 6819.36, -19723.22, 6327.91, -10846.18, 0.00, 0.00, 0.00
71, 187500.00, 107583.14, 8403.92, -9523.00, 6755.17, -19566.47, 6473.56, -10691.89, 0.00, 0.00, 0.00
72, 187500.00, 107637.02, 8403.70, -9541.67, 6834.90, -19583.73, 6467.90, -10706.31, 0.00, 0.00, 0.00
73, 187500.00, 107781.77, 8292.92, -9674.19, 6903.69, -19711.98, 6348.88, -10832.46, 0.00, 0.00, 0.00
74, 187500.00, 107793.61, 8258.39, -9693.66, 6840.68, -19737.19, 6320.45, -10857.74, 0.13, 0.96, 0.21
75, 187500.00, 107625.30, 8392.81, -9526.56, 6754.43, -19576.69, 6467.75, -10700.25, 0.00, 0.00, 0.00
76, 187500.00, 107639.29, 8422.16, -9513.26, 6822.80, -19563.25, 6493.09, -10681.25, 0.00, 0.00, 0.00
77, 187500.00, 107776.29, 8321.15, -9645.05, 6915.32, -19687.66, 6381.78, -10800.81, 0.00, 0.00, 0.00
78, 187500.00, 107826.33, 8249.13, -9715.16, 6875.02, -19758.14, 6311.44, -10871.02, 0.00, 0.00, 0.00
79, 187500.00, 107657.04, 8368.07, -9562.08, 6764.78, -19609.12, 6440.52, -10728.50, 0.00, 0.00, 0.00
80, 187500.00, 107638.47, 8432.15, -9506.53, 6804.65, -19552.72, 6504.42, -10670.48, 0.00, 0.00, 0.00
81, 187500.00, 107765.58, 8346.43, -9625.35, 6903.65, -19661.24, 6407.19, -10775.40, 0.00, 0.00, 0.00
82, 187500.00, 107848.15, 8253.05, -9724.89, 6892.56, -19762.03, 6312.85, -10873.92, 0.00, 0.00, 0.00
83, 187500.00, 107696.71, 8346.48, -9596.43, 6781.72, -19638.96, 6419.24, -10757.09, 0.00, 0.00, 0.00
84, 187500.00, 107634.40, 8440.55, -9501.10, 6795.80, -19547.29, 6513.54, -10666.23, 0.12, 0.95, 0.21
85, 187500.00, 107739.85, 8368.74, -9601.35, 6898.06, -19639.22, 6432.92, -10754.52, 0.00, 0.00, 0.00
86, 187500.00, 107844.55, 8258.05, -9723.37, 6912.52, -19760.71, 6319.37, -10873.05, 0.00, 0.00, 0.00
87, 187500.00, 107733.05, 8321.42, -9621.17, 6806.17, -19668.17, 6398.19, -10783.96, 0.00, 0.00, 0.00
88, 187500.00, 107649.84, 8454.06, -9474.84, 6793.68, -19527.87, 6535.85, -10645.35, 0.00, 0.00, 0.00
89, 187500.00, 107737.35, 8405.44, -9554.41, 6899.09, -19597.58, 6477.22, -10712.92, 0.00, 0.00, 0.00
90, 187500.00, 107854.23, 8282.62, -9698.58, 6935.28, -19737.39, 6347.18, -10850.03, 0.00, 0.00, 0.00
91, 187500.00, 107777.02, 8302.35, -9650.61, 6834.98, -19692.20, 6381.22, -10808.81, 0.00, 0.00, 0.00
92, 187500.00, 107645.84, 8439.42, -9495.04, 6782.41, -19543.00, 6519.18, -10664.96, 0.00, 0.00, 0.00
93, 187500.00, 107721.91, 8422.72, -9532.77, 6866.48, -19578.96, 6491.35, -10700.34, 0.00, 0.00, 0.00
94, 187500.00, 107854.23, 8302.20, -9679.15, 6923.01, -19721.48, 6357.86, -10840.71, 0.12, 0.95, 0.21
95, 187500.00, 107820.23, 8282.93, -9679.74, 6838.90, -19725.55, 6345.64, -10846.14, 0.00, 0.00, 0.00
96, 187500.00, 107661.17, 8416.17, -9513.04, 6760.91, -19563.61, 6491.35, -10689.97, 0.00, 0.00, 0.00
97, 187500.00, 107699.93, 8420.53, -9525.89, 6833.80, -19574.03, 6487.91, -10699.00, 0.00, 0.00, 0.00
98, 187500.00, 107840.93, 8311.45, -9661.74, 6907.65, -19705.14, 6365.55, -10827.81, 0.00, 0.00, 0.00
99, 187500.00, 107864.11, 8259.44, -9700.79, 6849.07, -19749.11, 6318.55, -10871.96, 0.00, 0.00, 0.00
100, 187500.00, 107695.15, 8384.79, -9536.97, 6756.04, -19593.79, 6460.39, -10719.36, 0.00, 0.00, 0.00
101, 187500.00, 107701.38, 8425.02, -9507.34, 6814.42, -19566.92, 6498.61, -10687.55, 0.00, 0.00, 0.00
102, 187500.00, 107829.91, 8322.45, -9639.66, 6907.63, -19691.13, 6385.45, -10807.65, 0.00, 0.00, 0.00
103, 187500.00, 107889.68, 8246.45, -9714.56, 6879.49, -19768.64, 6309.96, -10882.08, 0.00, 0.00, 0.00
104, 187500.00, 107728.56, 8363.75, -9559.37, 6768.53, -19621.01, 6437.06, -10738.56, 0.14, 0.95, 0.21
105, 187500.00, 107706.37, 8447.86, -9477.97, 6806.35, -19542.55, 6519.76, -10658.70, 0.00, 0.00, 0.00
106, 187500.00, 107819.88, 8365.16, -9591.29, 6905.26, -19648.97, 6420.96, -10764.20, 0.00, 0.00, 0.00
107, 187500.00, 107904.49, 8260.85, -9702.69, 6896.52, -19758.65, 6313.38, -10872.47, 0.00, 0.00, 0.00
108, 187500.00, 107765.06, 8344.51, -9577.10, 6785.30, -19635.65, 6412.96, -10758.07, 0.00, 0.00, 0.00
109, 187500.00, 107685.96, 8440.04, -9476.38, 6788.49, -19533.75, 6512.20, -10658.47, 0.00, 0.00, 0.00
110, 187500.00, 107792.09, 8377.46, -9571.84, 6889.79, -19616.20, 6440.23, -10739.52, 0.00, 0.00, 0.00
111, 187500.00, 107906.09, 8261.88, -9708.64, 6911.81, -19746.60, 6318.66, -10868.36, 0.00, 0.00, 0.00
112, 187500.00, 107798.46, 8311.32, -9628.21, 6808.25, -19669.56, 6382.03, -10797.86, 0.00, 0.00, 0.00
113, 187500.00, 107688.16, 8437.29, -9489.08, 6784.89, -19532.09, 6516.49, -10662.27, 0.00, 0.00, 0.00
114, 187500.00, 107778.50, 8398.76, -9555.46, 6881.86, -19587.97, 6470.05, -10717.79, 0.14, 0.96, 0.22
115, 187500.00, 107906.04, 8276.76, -9698.69, 6927.14, -19725.44, 6343.67, -10853.69, 0.00, 0.00, 0.00
116, 187500.00, 107837.20, 8283.13, -9666.55, 6834.85, -19696.69, 6363.94, -10827.27, 0.00, 0.00, 0.00
117, 187500.00, 107701.79, 8422.05, -9504.01, 6772.11, -19539.60, 6511.31, -10672.71, 0.00, 0.00, 0.00
118, 187500.00, 107771.03, 8412.93, -9536.17, 6860.00, -19566.83, 6496.76, -10696.56, 0.00, 0.00, 0.00
119, 187500.00, 107899.63, 8294.22, -9682.62, 6922.74, -19706.66, 6367.94, -10833.64, 0.00, 0.00, 0.00
120, 187500.00, 107887.53, 8269.85, -9686.82, 6846.23, -19713.12, 6354.18, -10843.93, 0.00, 0.00, 0.00
121, 187500.00, 107725.23, 8399.79, -9523.23, 6764.06, -19552.30, 6501.36, -10690.55, 0.00, 0.00, 0.00
122, 187500.00, 107756.77, 8410.36, -9530.81, 6836.12, -19554.91, 6507.33, -10691.31, 0.00, 0.00, 0.00
123, 187500.00, 107894.37, 8297.77, -9671.58, 6908.88, -19683.64, 6387.37, -10816.84, 0.00, 0.00, 0.00
124, 187500.00, 107926.42, 8236.68, -9725.15, 6851.79, -19734.22, 6333.34, -10867.62, 0.14, 0.95, 0.22
125, 187500.00, 107758.45, 8359.31, -9565.81, 6753.87, -19574.07, 6478.23, -10712.56, 0.00, 0.00, 0.00
126, 187500.00, 107754.91, 8399.47, -9533.82, 6805.90, -19539.34, 6522.78, -10676.15, 0.00, 0.00, 0.00
127, 187500.00, 107884.87, 8303.45, -9659.10, 6888.94, -19653.15, 6413.23, -10789.83, 0.00, 0.00, 0.00
128, 187500.00, 107959.93, 8225.29, -9739.12, 6861.27, -19733.19, 6334.82, -10869.72, 0.00, 0.00, 0.00
129, 187500.00, 107799.73, 8327.21, -9594.51, 6751.30, -19594.23, 6455.50, -10735.56, 0.00, 0.00, 0.00
130, 187500.00, 107747.34, 8406.33, -9519.54, 6779.08, -19521.72, 6532.65, -10661.65, 0.00, 0.00, 0.00
131, 187500.00, 107862.63, 8326.72, -9631.34, 6880.02, -19625.32, 6440.92, -10764.29, 0.00, 0.00, 0.00
132, 187500.00, 107957.83, 8225.87, -9745.27, 6881.27, -19739.81, 6334.22, -10876.78, 0.00, 0.00, 0.00
133, 187500.00, 107820.68, 8304.21, -9630.41, 6774.28, -19631.02, 6425.30, -10774.05, 0.00, 0.00, 0.00
134, 187500.00, 107736.45, 8413.29, -9512.77, 6772.06, -19517.30, 6535.49, -10662.43, 0.14, 0.95, 0.21
135, 187500.00, 107846.25, 8361.18, -9590.06, 6877.30, -19588.15, 6473.62, -10733.11, 0.00, 0.00, 0.00
136, 187500.00, 107964.95, 8245.29, -9721.73, 6904.36, -19718.84, 6350.53, -10861.34, 0.00, 0.00, 0.00
137, 187500.00, 107864.22, 8283.78, -9652.76, 6802.48, -19655.34, 6402.05, -10801.95, 0.00, 0.00, 0.00
138, 187500.00, 107745.26, 8411.72, -9507.02, 6771.08, -19513.94, 6539.83, -10661.49, 0.00, 0.00, 0.00
139, 187500.00, 107826.73, 8376.90, -9567.11, 6872.74, -19566.25, 6501.03, -10709.53, 0.00, 0.00, 0.00
140, 187500.00, 107961.70, 8265.41, -9704.64, 6927.95, -19697.94, 6379.99, -10838.74, 0.00, 0.00, 0.00
141, 187500.00, 107907.16, 8268.85, -9681.81, 6833.89, -19678.03, 6388.64, -10823.94, 0.00, 0.00, 0.00
142, 187500.00, 107755.99, 8407.43, -9517.75, 6772.06, -19517.70, 6537.62, -10668.62, 0.00, 0.00, 0.00
143, 187500.00, 107810.46, 8401.31, -9542.16, 6854.68, -19540.03, 6524.90, -10687.87, 0.13, 0.96, 0.22
144, 187500.00, 107953.76, 8288.70, -9676.29, 6919.79, -19669.69, 6403.51, -10817.13, 0.00, 0.00, 0.00
145, 187500.00, 107950.72, 8253.47, -9690.80, 6848.91, -19688.96, 6375.72, -10842.16, 0.00, 0.00, 0.00
146, 187500.00, 107777.00, 8381.52, -9526.80, 6763.21, -19530.71, 6520.09, -10691.04, 0.00, 0.00, 0.00
147, 187500.00, 107802.77, 8406.22, -9517.35, 6828.08, -19522.37, 6534.62, -10680.20, 0.00, 0.00, 0.00
148, 187500.00, 107939.25, 8303.99, -9648.06, 6909.80, -19647.61, 6421.28, -10802.31, 0.00, 0.00, 0.00
149, 187500.00, 107973.96, 8234.36, -9713.89, 6864.22, -19716.12, 6353.06, -10871.17, 0.00, 0.00, 0.00
150, 187500.00, 107802.75, 8357.23, -9552.33, 6764.26, -19559.92, 6493.63, -10719.74, 0.00, 0.00, 0.00
151, 187500.00, 107778.66, 8405.80, -9507.22, 6808.48, -19515.06, 6546.60, -10673.47, 0.00, 0.00, 0.00
152, 187500.00, 107909.08, 8319.39, -9624.39, 6899.94, -19622.57, 6449.48, -10776.83, 0.00, 0.00, 0.00
153, 187500.00, 107977.16, 8224.53, -9728.86, 6877.72, -19724.88, 6351.25, -10874.70, 0.12, 0.96, 0.22
154, 187500.00, 107825.73, 8326.49, -9592.21, 6767.39, -19592.15, 6466.11, -10748.62, 0.00, 0.00, 0.00
155, 187500.00, 107777.56, 8416.68, -9502.67, 6787.35, -19504.62, 6556.48, -10659.93, 0.00, 0.00, 0.00
156, 187500.00, 107895.64, 8345.22, -9606.27, 6886.80, -19601.09, 6470.74, -10755.61, 0.00, 0.00, 0.00
157, 187500.00, 108004.70, 8236.91, -9728.53, 6896.65, -19722.17, 6359.16, -10874.10, 0.00, 0.00, 0.00
158, 187500.00, 107882.01, 8298.96, -9628.17, 6784.07, -19626.26, 6438.98, -10785.41, 0.00, 0.00, 0.00
159, 187500.00, 107792.38, 8411.52, -9500.43, 6774.99, -19501.27, 6561.67, -10661.76, 0.00, 0.00, 0.00
160, 187500.00, 107892.56, 8358.93, -9577.41, 6877.94, -19571.28, 6503.04, -10729.64, 0.00, 0.00, 0.00
161, 187500.00, 108018.65, 8239.03, -9712.35, 6908.99, -19703.78, 6381.65, -10859.73, 0.00, 0.00, 0.00
162, 187500.00, 107929.59, 8257.25, -9660.40, 6811.85, -19655.43, 6420.56, -10815.36, 0.00, 0.00, 0.00
163, 187500.00, 107798.75, 8384.65, -9511.38, 6768.47, -19512.31, 6560.33, -10671.77, 0.13, 0.96, 0.22
164, 187500.00, 107877.16, 8368.22, -9556.40, 6857.31, -19553.55, 6528.52, -10710.87, 0.00, 0.00, 0.00
165, 187500.00, 108022.42, 8259.33, -9690.35, 6909.91, -19682.63, 6408.40, -10838.65, 0.00, 0.00, 0.00
166, 187500.00, 107982.97, 8246.88, -9681.46, 6823.72, -19678.95, 6401.07, -10839.30, 0.00, 0.00, 0.00
167, 187500.00, 107826.73, 8376.65, -9519.12, 6750.11, -19523.73, 6542.31, -10688.92, 0.00, 0.00, 0.00
168, 187500.00, 107881.95, 8381.43, -9530.58, 6827.76, -19531.31, 6542.96, -10694.04, 0.00, 0.00, 0.00
169, 187500.00, 108018.00, 8263.84, -9673.63, 6897.79, -19665.69, 6414.66, -10827.50, 0.00, 0.00, 0.00
170, 187500.00, 108029.98, 8215.74, -9705.53, 6829.08, -19700.02, 6374.96, -10863.82, 0.00, 0.00, 0.00
171, 187500.00, 107863.01, 8346.79, -9537.89, 6740.70, -19537.70, 6521.37, -10706.28, 0.00, 0.00, 0.00
172, 187500.00, 107874.03, 8376.65, -9518.85, 6802.53, -19520.65, 6546.54, -10686.97, 0.00, 0.00, 0.00
173, 187500.00, 108008.95, 8282.62, -9645.31, 6887.27, -19642.80, 6431.40, -10809.17, 0.14, 0.96, 0.22
174, 187500.00, 108054.05, 8209.55, -9718.67, 6844.95, -19719.69, 6360.21, -10883.24, 0.00, 0.00, 0.00
175, 187500.00, 107888.16, 8327.10, -9564.80, 6742.02, -19571.66, 6488.96, -10741.33, 0.00, 0.00, 0.00
176, 187500.00, 107860.77, 8394.73, -9504.88, 6781.05, -19512.78, 6550.49, -10680.49, 0.00, 0.00, 0.00
177, 187500.00, 107982.48, 8310.78, -9619.61, 6875.04, -19620.07, 6454.33, -10783.31, 0.00, 0.00, 0.00
178, 187500.00, 108070.32, 8214.89, -9721.42, 6860.93, -19724.79, 6355.27, -10886.89, 0.00, 0.00, 0.00
179, 187500.00, 107927.48, 8308.66, -9589.46, 6754.16, -19600.76, 6462.85, -10769.79, 0.00, 0.00, 0.00
180, 187500.00, 107864.30, 8406.65, -9488.29, 6771.82, -19500.94, 6564.91, -10666.57, 0.00, 0.00, 0.00
181, 187500.00, 107973.41, 8340.33, -9587.24, 6870.93, -19592.62, 6485.49, -10753.94, 0.00, 0.00, 0.00
182, 187500.00, 108086.80, 8230.83, -9712.70, 6885.14, -19715.89, 6372.10, -10876.63, 0.00, 0.00, 0.00
183, 187500.00, 107971.73, 8284.09, -9626.76, 6785.39, -19632.52, 6440.59, -10799.65, 0.13, 0.96, 0.21
184, 187500.00, 107864.28, 8400.81, -9500.88, 6765.96, -19507.71, 6560.97, -10675.80, 0.00, 0.00, 0.00
185, 187500.00, 107957.83, 8359.75, -9570.84, 6858.10, -19571.23, 6511.47, -10732.88, 0.00, 0.00, 0.00
186, 187500.00, 108087.83, 8247.59, -9706.38, 6905.71, -19701.59, 6393.76, -10859.24, 0.00, 0.00, 0.00
187, 187500.00, 108007.91, 8260.56, -9666.68, 6812.70, -19664.75, 6420.52, -10827.01, 0.00, 0.00, 0.00
188, 187500.00, 107868.91, 8396.77, -9507.11, 6763.91, -19508.91, 6567.19, -10671.08, 0.00, 0.00, 0.00
189, 187500.00, 107936.93, 8379.49, -9548.31, 6854.77, -19544.28, 6540.59, -10701.84, 0.00, 0.00, 0.00
190, 187500.00, 108070.86, 8262.17, -9688.97, 6912.86, -19677.67, 6420.61, -10831.16, 0.00, 0.00, 0.00
191, 187500.00, 108046.18, 8244.75, -9686.37, 6835.88, -19677.78, 6413.16, -10835.01, 0.00, 0.00, 0.00
192, 187500.00, 107881.98, 8376.76, -9522.33, 6758.65, -19520.49, 6555.52, -10686.28, 0.00, 0.00, 0.00
193, 187500.00, 107922.66, 8389.08, -9525.80, 6833.64, -19520.43, 6563.57, -10679.60, 0.13, 0.96, 0.21
194, 187500.00, 108057.67, 8278.48, -9662.99, 6915.36, -19650.89, 6445.86, -10808.88, 0.00, 0.00, 0.00
195, 187500.00, 108071.93, 8224.03, -9707.38, 6859.93, -19698.75, 6397.87, -10857.47, 0.00, 0.00, 0.00
196, 187500.00, 107901.86, 8354.43, -9543.64, 6758.54, -19540.34, 6534.26, -10705.79, 0.00, 0.00, 0.00
197, 187500.00, 107913.57, 8397.24, -9512.37, 6810.31, -19508.80, 6572.93, -10673.02, 0.00, 0.00, 0.00
198, 187500.00, 108041.38, 8295.20, -9643.15, 6899.58, -19632.79, 6457.96, -10795.09, 0.00, 0.00, 0.00
199, 187500.00, 108101.39, 8212.61, -9724.39, 6860.58, -19716.27, 6372.64, -10879.24, 0.00, 0.00, 0.00
200, 187500.00, 107944.70, 8324.62, -9573.16, 6750.20, -19570.99, 6498.01, -10739.59, 0.00, 0.00, 0.00
201, 187500.00, 107909.73, 8399.25, -9499.74, 6785.39, -19500.42, 6570.65, -10668.13, 0.00, 0.00, 0.00
202, 187500.00, 108027.63, 8315.81, -9609.15, 6874.68, -19602.84, 6474.81, -10770.95, 0.00, 0.00, 0.00
203, 187500.00, 108124.15, 8218.04, -9713.60, 6869.09, -19705.61, 6375.07, -10872.42, 0.14, 0.96, 0.22
204, 187500.00, 107977.54, 8295.98, -9600.48, 6761.02, -19596.04, 6465.09, -10768.42, 0.00, 0.00, 0.00
205, 187500.00, 107897.66, 8397.91, -9493.50, 6764.33, -19492.20, 6569.47, -10664.60, 0.00, 0.00, 0.00
206, 187500.00, 108003.49, 8335.01, -9585.12, 6866.79, -19576.51, 6498.21, -10745.91, 0.00, 0.00, 0.00
207, 187500.00, 108123.37, 8222.96, -9712.01, 6887.53, -19699.51, 6384.71, -10865.76, 0.00, 0.00, 0.00
208, 187500.00, 108015.56, 8264.56, -9636.10, 6785.16, -19624.25, 6443.31, -10797.88, 0.00, 0.00, 0.00
209, 187500.00, 107890.70, 8381.81, -9505.91, 6753.00, -19496.98, 6562.65, -10671.68, 0.00, 0.00, 0.00
210, 187500.00, 107977.43, 8350.95, -9563.86, 6846.92, -19549.88, 6517.28, -10722.42, 0.00, 0.00, 0.00
211, 187500.00, 108109.93, 8236.04, -9698.49, 6889.23, -19683.41, 6396.09, -10852.98, 0.00, 0.00, 0.00
212, 187500.00, 108047.68, 8238.76, -9668.63, 6797.90, -19661.62, 6409.43, -10835.41, 0.00, 0.00, 0.00
213, 187500.00, 107897.70, 8371.06, -9511.40, 6742.31, -19511.37, 6549.53, -10690.21, 0.14, 0.96, 0.22
214, 187500.00, 107962.14, 8361.36, -9542.07, 6827.81, -19537.64, 6533.95, -10714.22, 0.00, 0.00, 0.00
215, 187500.00, 108103.34, 8249.38, -9681.46, 6895.13, -19668.35, 6413.52, -10840.04, 0.00, 0.00, 0.00
216, 187500.00, 108090.22, 8220.99, -9694.49, 6819.43, -19682.07, 6392.33, -10853.89, 0.00, 0.00, 0.00
217, 187500.00, 107923.02, 8351.42, -9532.33, 6737.78, -19522.66, 6535.38, -10700.70, 0.00, 0.00, 0.00
218, 187500.00, 107950.70, 8369.36, -9530.85, 6807.76, -19521.10, 6546.33, -10695.62, 0.00, 0.00, 0.00
219, 187500.00, 108087.16, 8266.70, -9661.12, 6889.92, -19646.87, 6433.59, -10816.95, 0.00, 0.00, 0.00
220, 187500.00, 108122.41, 8203.27, -9715.10, 6845.53, -19704.22, 6379.03, -10871.82, 0.00, 0.00, 0.00
221, 187500.00, 107951.39, 8324.93, -9558.41, 6743.41, -19554.33, 6512.36, -10725.84, 0.00, 0.00, 0.00
222, 187500.00, 107945.66, 8383.22, -9512.28, 6786.19, -19509.18, 6562.94, -10679.48, 0.00, 0.00, 0.00
223, 187500.00, 108076.47, 8296.10, -9629.09, 6881.83, -19618.57, 6464.42, -10785.99, 0.14, 0.95, 0.21
224, 187500.00, 108144.02, 8209.08, -9718.78, 6860.51, -19710.37, 6374.54, -10876.31, 0.00, 0.00, 0.00
225, 187500.00, 107986.44, 8311.41, -9577.74, 6749.87, -19572.17, 6491.82, -10745.96, 0.00, 0.00, 0.00
226, 187500.00, 107936.81, 8389.30, -9501.75, 6774.61, -19497.02, 6570.18, -10669.92, 0.00, 0.00, 0.00
227, 187500.00, 108056.89, 8314.58, -9605.59, 6873.99, -19595.46, 6484.33, -10764.58, 0.00, 0.00, 0.00
228, 187500.00, 108158.97, 8210.98, -9719.63, 6879.64, -19709.07, 6376.35, -10876.31, 0.00, 0.00, 0.00
229, 187500.00, 108027.34, 8277.81, -9615.50, 6770.61, -19607.87, 6457.24, -10782.79, 0.00, 0.00, 0.00
230, 187500.00, 107940.88, 8387.92, -9495.71, 6759.86, -19489.58, 6566.47, -10668.76, 0.00, 0.00, 0.00
231, 187500.00, 108039.19, 8335.43, -9575.42, 6855.68, -19560.73, 6502.86, -10740.15, 0.00, 0.00, 0.00
232, 187500.00, 108158.95, 8219.09, -9707.92, 6881.30, -19690.17, 6382.56, -10866.68, 0.14, 0.96, 0.21
233, 187500.00, 108060.02, 8252.44, -9647.04, 6778.57, -19632.25, 6427.94, -10812.23, 0.00, 0.00, 0.00
234, 187500.00, 107933.98, 8377.72, -9505.33, 6742.05, -19495.88, 6559.45, -10676.87, 0.00, 0.00, 0.00
235, 187500.00, 108016.50, 8350.01, -9558.75, 6835.50, -19546.58, 6520.36, -10721.86, 0.00, 0.00, 0.00
236, 187500.00, 108146.21, 8232.88, -9699.87, 6888.20, -19682.74, 6400.42, -10851.46, 0.00, 0.00, 0.00
237, 187500.00, 108097.93, 8229.11, -9678.84, 6803.27, -19664.44, 6410.01, -10834.54, 0.00, 0.00, 0.00
238, 187500.00, 107940.91, 8361.65, -9517.69, 6746.25, -19505.90, 6557.69, -10679.53, 0.00, 0.00, 0.00
239, 187500.00, 107991.53, 8362.30, -9538.85, 6825.19, -19525.90, 6544.30, -10699.11, 0.00, 0.00, 0.00
240, 187500.00, 108129.78, 8255.91, -9674.10, 6893.86, -19656.91, 6420.96, -10830.51, 0.00, 0.00, 0.00
241, 187500.00, 108132.35, 8219.83, -9698.00, 6827.03, -19683.73, 6389.22, -10856.67, 0.00, 0.00, 0.00
242, 187500.00, 107962.90, 8344.35, -9538.85, 6734.58, -19531.00, 6526.19, -10705.68, 0.14, 0.96, 0.21
243, 187500.00, 107979.44, 8372.47, -9523.74, 6794.01, -19515.38, 6547.61, -10688.76, 0.00, 0.00, 0.00
244, 187500.00, 108115.59, 8273.07, -9650.41, 6877.43, -19636.03, 6436.12, -10808.88, 0.00, 0.00, 0.00
245, 187500.00, 108158.59, 8204.03, -9714.78, 6843.75, -19702.62, 6371.50, -10874.17, 0.00, 0.00, 0.00
246, 187500.00, 107987.11, 8316.55, -9562.63, 6738.25, -19554.06, 6502.06, -10731.83, 0.00, 0.00, 0.00
247, 187500.00, 107970.43, 8380.65, -9506.96, 6784.67, -19498.52, 6564.77, -10673.72, 0.00, 0.00, 0.00
248, 187500.00, 108091.55, 8294.75, -9623.41, 6882.35, -19607.84, 6468.77, -10779.82, 0.00, 0.00, 0.00
249, 187500.00, 108172.54, 8198.64, -9720.59, 6863.68, -19708.67, 6372.28, -10880.54, 0.00, 0.00, 0.00
250, 187500.00, 108022.89, 8291.96, -9585.50, 6750.65, -19579.72, 6480.51, -10758.83, 0.00, 0.00, 0.00
251, 187500.00, 107962.37, 8385.91, -9492.12, 6763.06, -19490.32, 6566.96, -10669.20, 0.00, 0.00, 0.00
252, 187500.00, 108071.33, 8313.51, -9591.51, 6861.11, -19584.73, 6482.03, -10759.62, 0.14, 0.96, 0.21
253, 187500.00, 108176.61, 8201.82, -9714.02, 6866.19, -19707.00, 6366.74, -10879.85, 0.00, 0.00, 0.00
254, 187500.00, 108054.38, 8261.56, -9619.86, 6757.92, -19616.49, 6440.05, -10795.60, 0.00, 0.00, 0.00
255, 187500.00, 107954.20, 8371.98, -9498.13, 6742.14, -19496.82, 6557.29, -10677.09, 0.00, 0.00, 0.00
0, 187500.00, 108049.42, 8320.55, -9577.45, 6837.69, -19566.74, 6496.33, -10745.42, 0.00, 0.00, 0.00
1, 187500.00, 108177.16, 8202.06, -9716.88, 6869.23, -19701.52, 6371.21, -10875.80, 0.00, 0.00, 0.00
2, 187500.00, 108098.53, 8224.86, -9663.33, 6771.15, -19650.58, 6409.43, -10829.62, 0.00, 0.00, 0.00
3, 187500.00, 107968.73, 8355.44, -9511.38, 6728.28, -19506.01, 6547.85, -10686.46, 0.00, 0.00, 0.00
4, 187500.00, 108047.70, 8336.44, -9556.58, 6824.19, -19547.20, 6518.28, -10725.73, 0.00, 0.00, 0.00
5, 187500.00, 108182.35, 8218.69, -9697.37, 6882.62, -19683.33, 6395.68, -10857.61, 0.00, 0.00, 0.00
6, 187500.00, 108141.02, 8209.64, -9686.13, 6800.47, -19677.11, 6393.47, -10852.46, 0.14, 0.95, 0.21
7, 187500.00, 107980.18, 8345.98, -9523.97, 6725.37, -19520.36, 6535.63, -10699.02, 0.00, 0.00, 0.00
8, 187500.00, 108032.44, 8359.28, -9532.21, 6804.97, -19526.08, 6543.27, -10701.81, 0.00, 0.00, 0.00
9, 187500.00, 108167.89, 8251.15, -9670.95, 6882.26, -19659.28, 6424.87, -10833.02, 0.00, 0.00, 0.00
10, 187500.00, 108178.33, 8202.82, -9708.30, 6823.27, -19700.34, 6379.05, -10873.90, 0.00, 0.00, 0.00
11, 187500.00, 108005.75, 8330.18, -9543.84, 6727.56, -19539.60, 6521.41, -10717.64, 0.00, 0.00, 0.00
12, 187500.00, 108021.35, 8372.16, -9512.86, 6788.22, -19508.69, 6559.25, -10686.95, 0.00, 0.00, 0.00
13, 187500.00, 108154.37, 8274.86, -9637.42, 6876.02, -19627.31, 6450.47, -10803.78, 0.00, 0.00, 0.00
14, 187500.00, 108195.91, 8195.29, -9712.32, 6836.26, -19706.04, 6373.69, -10878.75, 0.00, 0.00, 0.00
15, 187500.00, 108033.98, 8307.65, -9556.51, 6725.66, -19556.50, 6498.97, -10735.97, 0.00, 0.00, 0.00
16, 187500.00, 108003.00, 8373.12, -9494.06, 6757.18, -19498.63, 6559.32, -10677.63, 0.14, 0.96, 0.21
17, 187500.00, 108130.20, 8296.70, -9598.42, 6855.15, -19598.14, 6470.02, -10775.98, 0.00, 0.00, 0.00
18, 187500.00, 108214.65, 8199.80, -9707.34, 6845.40, -19709.14, 6361.73, -10886.10, 0.00, 0.00, 0.00
19, 187500.00, 108071.46, 8282.80, -9588.16, 6727.79, -19595.95, 6456.14, -10778.61, 0.00, 0.00, 0.00
20, 187500.00, 108007.27, 8385.93, -9482.24, 6739.41, -19491.37, 6564.86, -10671.84, 0.00, 0.00, 0.00
21, 187500.00, 108111.38, 8319.16, -9580.72, 6843.03, -19582.01, 6488.26, -10758.23, 0.00, 0.00, 0.00
22, 187500.00, 108223.90, 8206.62, -9710.04, 6858.77, -19710.91, 6373.02, -10880.76, 0.00, 0.00, 0.00
23, 187500.00, 108126.29, 8261.85, -9624.15, 6758.94, -19628.12, 6444.61, -10801.88, 0.00, 0.00, 0.00
24, 187500.00, 108038.74, 8384.90, -9487.71, 6741.33, -19496.58, 6576.46, -10669.07, 0.00, 0.00, 0.00
25, 187500.00, 108139.66, 8342.54, -9556.38, 6841.22, -19559.92, 6523.42, -10729.08, 0.00, 0.00, 0.00
26, 187500.00, 108278.59, 8224.79, -9693.57, 6875.80, -19693.32, 6395.53, -10861.88, 0.14, 0.95, 0.21
27, 187500.00, 108212.03, 8230.52, -9659.80, 6777.25, -19662.38, 6413.88, -10834.56, 0.00, 0.00, 0.00
28, 187500.00, 108077.48, 8359.22, -9505.35, 6727.61, -19511.71, 6557.02, -10686.66, 0.00, 0.00, 0.00
29, 187500.00, 108154.86, 8354.90, -9536.57, 6822.31, -19538.91, 6540.95, -10709.86, 0.00, 0.00, 0.00
30, 187500.00, 108288.59, 8237.87, -9680.92, 6880.40, -19678.90, 6409.21, -10847.10, 0.00, 0.00, 0.00
31, 187500.00, 108269.90, 8216.30, -9683.49, 6798.53, -19685.78, 6393.65, -10856.96, 0.00, 0.00, 0.00
32, 187500.00, 108110.42, 8353.56, -9516.25, 6717.44, -19522.73, 6541.91, -10698.62, 0.00, 0.00, 0.00
33, 187500.00, 108149.18, 8370.95, -9518.47, 6791.87, -19521.12, 6551.21, -10695.78, 0.00, 0.00, 0.00
34, 187500.00, 108279.42, 8258.37, -9662.08, 6872.07, -19656.71, 6428.61, -10827.27, 0.00, 0.00, 0.00
35, 187500.00, 108310.05, 8209.01, -9704.43, 6820.86, -19701.88, 6381.98, -10873.21, 0.00, 0.00, 0.00
36, 187500.00, 108147.68, 8337.67, -9536.75, 6729.51, -19538.55, 6525.44, -10715.74, 0.13, 0.95, 0.21
37, 187500.00, 108142.81, 8375.47, -9509.50, 6782.48, -19511.42, 6565.18, -10684.29, 0.00, 0.00, 0.00
38, 187500.00, 108280.41, 8286.15, -9628.01, 6870.43, -19622.86, 6466.49, -10793.34, 0.00, 0.00, 0.00
39, 187500.00, 108342.79, 8203.45, -9710.40, 6844.62, -19704.43, 6384.31, -10875.69, 0.00, 0.00, 0.00
40, 187500.00, 108177.68, 8303.23, -9569.88, 6733.82, -19567.54, 6498.01, -10747.75, 0.00, 0.00, 0.00
41, 187500.00, 108141.78, 8381.75, -9492.54, 6754.00, -19496.40, 6569.71, -10675.15, 0.00, 0.00, 0.00
42, 187500.00, 108266.02, 8307.52, -9595.00, 6852.78, -19594.10, 6481.65, -10772.02, 0.00, 0.00, 0.00
43, 187500.00, 108360.76, 8203.54, -9707.99, 6844.66, -19707.80, 6374.94, -10882.88, 0.00, 0.00, 0.00
44, 187500.00, 108221.51, 8278.50, -9599.11, 6734.63, -19605.52, 6462.67, -10783.42, 0.00, 0.00, 0.00
45, 187500.00, 108141.42, 8384.34, -9489.48, 6739.39, -19498.37, 6571.70, -10674.86, 0.00, 0.00, 0.00
46, 187500.00, 108243.62, 8326.99, -9578.59, 6838.05, -19579.77, 6503.69, -10753.33, 0.13, 0.96, 0.22
47, 187500.00, 108361.99, 8213.01, -9711.61, 6857.31, -19710.64, 6382.52, -10881.54, 0.00, 0.00, 0.00
48, 187500.00, 108265.09, 8257.70, -9637.33, 6755.99, -19640.50, 6437.24, -10814.09, 0.00, 0.00, 0.00
49, 187500.00, 108147.44, 8377.79, -9497.90, 6728.72, -19504.00, 6567.57, -10678.86, 0.00, 0.00, 0.00
50, 187500.00, 108230.90, 8340.64, -9562.19, 6824.73, -19563.16, 6520.43, -10734.27, 0.00, 0.00, 0.00
51, 187500.00, 108357.88, 8224.68, -9703.18, 6863.35, -19702.93, 6387.90, -10870.97, 0.00, 0.00, 0.00
52, 187500.00, 108298.11, 8229.82, -9673.54, 6770.01, -19678.34, 6401.49, -10850.07, 0.00, 0.00, 0.00
53, 187500.00, 108153.05, 8367.64, -9508.72, 6710.98, -19520.94, 6546.04, -10695.51, 0.00, 0.00, 0.00
54, 187500.00, 108217.53, 8369.57, -9527.25, 6797.48, -19541.24, 6536.81, -10712.12, 0.00, 0.00, 0.00
55, 187500.00, 108357.97, 8263.84, -9661.16, 6867.77, -19672.46, 6417.16, -10839.77, 0.13, 0.97, 0.22
56, 187500.00, 108348.60, 8230.72, -9677.77, 6795.78, -19692.54, 6390.07, -10861.41, 0.00, 0.00, 0.00
57, 187500.00, 108176.36, 8356.13, -9518.18, 6710.87, -19537.53, 6529.99, -10712.65, 0.00, 0.00, 0.00
58, 187500.00, 108203.38, 8386.40, -9505.55, 6785.30, -19521.92, 6555.61, -10693.19, 0.00, 0.00, 0.00
59, 187500.00, 108332.40, 8285.08, -9635.43, 6869.34, -19644.52, 6445.28, -10812.01, 0.00, 0.00, 0.00
60, 187500.00, 108360.85, 8222.13, -9692.77, 6827.61, -19701.97, 6387.88, -10870.77, 0.00, 0.00, 0.00
61, 187500.00, 108192.54, 8343.66, -9533.33, 6728.05, -19546.49, 6522.44, -10722.94, 0.00, 0.00, 0.00
62, 187500.00, 108177.16, 8396.72, -9488.00, 6774.55, -19499.01, 6576.84, -10671.75, 0.00, 0.00, 0.00
63, 187500.00, 108300.97, 8304.68, -9610.33, 6869.99, -19609.72, 6474.27, -10781.27, 0.00, 0.00, 0.00
64, 187500.00, 108371.83, 8215.05, -9702.94, 6846.03, -19700.27, 6386.65, -10874.06, 0.00, 0.00, 0.00
65, 187500.00, 108217.46, 8313.55, -9564.18, 6737.33, -19562.47, 6505.83, -10742.45, 0.14, 0.97, 0.22
66, 187500.00, 108163.87, 8392.92, -9480.87, 6754.45, -19482.14, 6586.41, -10662.03, 0.00, 0.00, 0.00
67, 187500.00, 108277.61, 8321.51, -9580.20, 6852.58, -19575.25, 6501.76, -10754.88, 0.00, 0.00, 0.00
68, 187500.00, 108373.91, 8211.11, -9700.54, 6853.40, -19695.73, 6387.30, -10873.36, 0.00, 0.00, 0.00
69, 187500.00, 108243.52, 8274.03, -9602.33, 6739.45, -19598.10, 6467.72, -10782.57, 0.00, 0.00, 0.00
70, 187500.00, 108154.90, 8380.61, -9490.37, 6730.18, -19481.71, 6581.60, -10668.17, 0.00, 0.00, 0.00
71, 187500.00, 108256.24, 8323.83, -9576.13, 6830.02, -19555.07, 6519.38, -10738.54, 0.00, 0.00, 0.00
72, 187500.00, 108370.26, 8200.72, -9720.19, 6860.15, -19691.42, 6391.64, -10872.16, 0.00, 0.00, 0.00
73, 187500.00, 108281.50, 8233.06, -9662.90, 6752.60, -19636.59, 6431.20, -10823.65, 0.00, 0.00, 0.00
74, 187500.00, 108153.77, 8359.28, -9520.10, 6711.33, -19496.44, 6565.33, -10685.50, 0.00, 0.00, 0.00
75, 187500.00, 108232.02, 8330.96, -9573.21, 6803.85, -19544.90, 6530.49, -10730.25, 0.14, 0.96, 0.21
76, 187500.00, 108361.34, 8217.10, -9711.18, 6858.99, -19680.06, 6408.38, -10861.92, 0.00, 0.00, 0.00
77, 187500.00, 108314.60, 8210.06, -9694.98, 6774.99, -19666.67, 6410.90, -10853.43, 0.00, 0.00, 0.00
78, 187500.00, 108158.91, 8339.21, -9535.63, 6703.31, -19514.10, 6553.55, -10703.96, 0.00, 0.00, 0.00
79, 187500.00, 108213.13, 8345.13, -9550.74, 6786.62, -19526.75, 6553.96, -10711.83, 0.00, 0.00, 0.00
80, 187500.00, 108346.08, 8234.40, -9689.53, 6862.66, -19658.54, 6433.64, -10841.09, 0.00, 0.00, 0.00
81, 187500.00, 108344.22, 8189.70, -9721.04, 6793.79, -19691.80, 6396.98, -10875.64, 0.00, 0.00, 0.00
82, 187500.00, 108180.61, 8319.65, -9552.17, 6703.91, -19528.54, 6543.74, -10719.94, 0.00, 0.00, 0.00
83, 187500.00, 108196.66, 8346.43, -9533.15, 6771.21, -19510.55, 6569.13, -10701.61, 0.00, 0.00, 0.00
84, 187500.00, 108320.33, 8240.55, -9664.27, 6850.45, -19636.70, 6449.31, -10827.14, 0.00, 0.00, 0.00
85, 187500.00, 108362.44, 8174.73, -9727.64, 6804.38, -19701.25, 6381.22, -10892.99, 0.14, 0.95, 0.21
86, 187500.00, 108204.43, 8293.08, -9571.51, 6702.93, -19547.38, 6515.62, -10745.31, 0.00, 0.00, 0.00
87, 187500.00, 108183.98, 8358.05, -9517.01, 6745.18, -19494.25, 6576.75, -10690.10, 0.00, 0.00, 0.00
88, 187500.00, 108302.89, 8273.99, -9632.75, 6841.96, -19598.81, 6481.20, -10794.71, 0.00, 0.00, 0.00
89, 187500.00, 108375.91, 8178.19, -9734.97, 6823.94, -19698.59, 6383.66, -10894.02, 0.00, 0.00, 0.00
90, 187500.00, 108227.99, 8271.35, -9605.13, 6714.89, -19570.11, 6491.44, -10773.52, 0.00, 0.00, 0.00
91, 187500.00, 108167.30, 8364.04, -9512.32, 6731.76, -19476.28, 6587.01, -10679.98, 0.00, 0.00, 0.00
92, 187500.00, 108280.61, 8302.35, -9605.10, 6835.79, -19559.81, 6515.35, -10762.12, 0.00, 0.00, 0.00
93, 187500.00, 108387.05, 8197.79, -9723.34, 6853.31, -19676.44, 6407.71, -10876.29, 0.00, 0.00, 0.00
94, 187500.00, 108266.51, 8252.64, -9629.71, 6747.34, -19587.79, 6478.83, -10792.20, 0.00, 0.00, 0.00
95, 187500.00, 108171.33, 8366.37, -9500.00, 6734.92, -19462.76, 6604.47, -10666.34, 0.14, 0.95, 0.20
96, 187500.00, 108269.16, 8321.75, -9571.17, 6831.61, -19529.48, 6552.15, -10728.21, 0.00, 0.00, 0.00
97, 187500.00, 108388.84, 8204.14, -9711.25, 6857.87, -19669.11, 6421.23, -10863.89, 0.00, 0.00, 0.00
98, 187500.00, 108316.73, 8221.73, -9664.09, 6755.43, -19627.94, 6448.46, -10827.74, 0.00, 0.00, 0.00
99, 187500.00, 108185.10, 8346.83, -9516.75, 6705.95, -19486.72, 6578.25, -10691.51, 0.00, 0.00, 0.00
100, 187500.00, 108260.63, 8327.77, -9556.76, 6790.30, -19525.84, 6547.83, -10728.73, 0.00, 0.00, 0.00
101, 187500.00, 108392.86, 8214.36, -9693.44, 6847.34, -19663.34, 6421.57, -10862.86, 0.00, 0.00, 0.00
102, 187500.00, 108359.38, 8204.63, -9685.28, 6768.58, -19661.62, 6417.14, -10862.39, 0.00, 0.00, 0.00
103, 187500.00, 108196.27, 8338.30, -9525.11, 6698.88, -19505.38, 6562.23, -10709.53, 0.00, 0.00, 0.00
104, 187500.00, 108234.74, 8348.78, -9534.90, 6780.58, -19514.21, 6566.52, -10713.66, 0.00, 0.00, 0.00
105, 187500.00, 108360.90, 8237.36, -9673.83, 6857.47, -19646.22, 6448.05, -10839.72, 0.14, 0.96, 0.21
106, 187500.00, 108375.88, 8192.56, -9713.55, 6797.37, -19687.13, 6402.86, -10881.59, 0.00, 0.00, 0.00
107, 187500.00, 108213.15, 8327.01, -9548.49, 6705.61, -19524.94, 6549.75, -10723.92, 0.00, 0.00, 0.00
108, 187500.00, 108220.46, 8368.18, -9524.55, 6770.61, -19496.31, 6590.08, -10692.60, 0.00, 0.00, 0.00
109, 187500.00, 108346.91, 8271.96, -9651.82, 6861.58, -19614.71, 6483.97, -10808.70, 0.00, 0.00, 0.00
110, 187500.00, 108403.09, 8201.48, -9721.20, 6828.52, -19686.52, 6412.11, -10880.99, 0.00, 0.00, 0.00
111, 187500.00, 108237.72, 8308.86, -9568.47, 6720.74, -19539.00, 6539.63, -10740.95, 0.00, 0.00, 0.00
112, 187500.00, 108204.81, 8381.59, -9495.02, 6760.28, -19466.78, 6617.73, -10667.26, 0.00, 0.00, 0.00
113, 187500.00, 108320.62, 8299.38, -9601.15, 6855.75, -19565.42, 6527.74, -10763.53, 0.00, 0.00, 0.00
114, 187500.00, 108405.84, 8200.70, -9701.13, 6848.08, -19667.61, 6430.22, -10863.55, 0.00, 0.00, 0.00
115, 187500.00, 108260.63, 8275.64, -9583.06, 6736.12, -19554.63, 6522.15, -10758.65, 0.14, 0.96, 0.20
116, 187500.00, 108189.03, 8368.72, -9478.73, 6738.78, -19451.25, 6623.78, -10658.18, 0.00, 0.00, 0.00
117, 187500.00, 108290.47, 8305.42, -9569.36, 6833.31, -19534.60, 6544.99, -10743.48, 0.00, 0.00, 0.00
118, 187500.00, 108398.20, 8195.87, -9695.61, 6848.75, -19659.32, 6422.42, -10868.69, 0.00, 0.00, 0.00
119, 187500.00, 108287.67, 8237.94, -9621.75, 6734.65, -19587.06, 6475.84, -10802.15, 0.00, 0.00, 0.00
120, 187500.00, 108179.66, 8353.65, -9494.55, 6706.13, -19459.29, 6597.56, -10678.34, 0.00, 0.00, 0.00
121, 187500.00, 108262.99, 8313.57, -9569.43, 6804.38, -19524.92, 6546.24, -10739.48, 0.00, 0.00, 0.00
122, 187500.00, 108392.01, 8201.53, -9711.12, 6846.07, -19657.46, 6428.00, -10866.01, 0.00, 0.00, 0.00
123, 187500.00, 108331.57, 8218.29, -9675.94, 6753.87, -19623.98, 6451.83, -10835.72, 0.00, 0.00, 0.00
124, 187500.00, 108189.05, 8352.09, -9522.94, 6697.77, -19476.13, 6589.50, -10690.08, 0.00, 0.00, 0.00
125, 187500.00, 108245.60, 8338.16, -9562.23, 6785.03, -19513.68, 6565.09, -10723.41, 0.14, 0.96, 0.20
126, 187500.00, 108381.37, 8226.92, -9700.19, 6846.81, -19648.88, 6443.00, -10853.92, 0.00, 0.00, 0.00
127, 187500.00, 108362.86, 8201.17, -9708.41, 6775.55, -19664.68, 6425.12, -10869.12, 0.00, 0.00, 0.00
128, 187500.00, 108207.05, 8335.03, -9538.03, 6700.85, -19502.39, 6576.17, -10710.15, 0.00, 0.00, 0.00
129, 187500.00, 108242.14, 8353.76, -9534.65, 6769.92, -19500.89, 6586.25, -10705.59, 0.00, 0.00, 0.00
130, 187500.00, 108372.52, 8241.02, -9671.26, 6845.09, -19635.04, 6464.77, -10835.10, 0.00, 0.00, 0.00
131, 187500.00, 108400.39, 8181.36, -9718.52, 6792.65, -19686.79, 6411.80, -10885.84, 0.00, 0.00, 0.00
132, 187500.00, 108233.24, 8305.10, -9553.83, 6689.85, -19528.43, 6550.71, -10734.74, 0.00, 0.00, 0.00
133, 187500.00, 108231.97, 8355.66, -9510.17, 6743.79, -19485.94, 6599.78, -10689.81, 0.00, 0.00, 0.00
134, 187500.00, 108352.34, 8260.40, -9633.98, 6836.48, -19600.56, 6493.54, -10802.46, 0.00, 0.00, 0.00
135, 187500.00, 108411.32, 8179.26, -9719.14, 6808.03, -19686.95, 6408.71, -10887.47, 0.14, 0.96, 0.21
136, 187500.00, 108257.52, 8285.90, -9576.76, 6701.77, -19548.57, 6527.47, -10755.37, 0.00, 0.00, 0.00
137, 187500.00, 108218.00, 8367.71, -9498.02, 6728.95, -19469.15, 6608.14, -10675.57, 0.00, 0.00, 0.00
138, 187500.00, 108329.09, 8291.04, -9604.59, 6830.51, -19565.26, 6521.86, -10769.90, 0.00, 0.00, 0.00
139, 187500.00, 108421.58, 8183.49, -9718.74, 6829.62, -19677.83, 6416.81, -10880.45, 0.00, 0.00, 0.00
140, 187500.00, 108288.23, 8253.56, -9610.07, 6713.95, -19573.09, 6503.15, -10781.39, 0.00, 0.00, 0.00
141, 187500.00, 108209.28, 8360.27, -9495.07, 6713.73, -19460.84, 6616.63, -10667.17, 0.00, 0.00, 0.00
142, 187500.00, 108308.46, 8302.22, -9581.61, 6816.30, -19538.89, 6550.42, -10742.70, 0.00, 0.00, 0.00
143, 187500.00, 108434.99, 8185.90, -9714.56, 6842.05, -19667.61, 6430.64, -10870.50, 0.00, 0.00, 0.00
144, 187500.00, 108356.20, 8223.74, -9645.58, 6737.06, -19600.31, 6480.40, -10810.67, 0.14, 0.96, 0.21
145, 187500.00, 108250.45, 8345.47, -9505.01, 6699.44, -19463.14, 6608.14, -10679.04, 0.00, 0.00, 0.00
146, 187500.00, 108338.66, 8307.50, -9567.37, 6789.01, -19515.13, 6561.38, -10729.44, 0.00, 0.00, 0.00
147, 187500.00, 108474.33, 8190.35, -9706.16, 6829.75, -19647.76, 6433.23, -10860.69, 0.00, 0.00, 0.00
148, 187500.00, 108427.15, 8188.27, -9683.16, 6731.81, -19630.84, 6436.43, -10849.51, 0.00, 0.00, 0.00
149, 187500.00, 108290.31, 8319.61, -9522.94, 6667.06, -19476.71, 6577.98, -10701.14, 0.00, 0.00, 0.00
150, 187500.00, 108349.36, 8312.08, -9550.83, 6752.66, -19502.19, 6564.15, -10722.38, 0.00, 0.00, 0.00
151, 187500.00, 108486.85, 8198.80, -9692.66, 6816.88, -19640.77, 6437.70, -10856.15, 0.00, 0.00, 0.00
152, 187500.00, 108490.24, 8166.01, -9714.09, 6748.37, -19665.56, 6410.08, -10880.40, 0.00, 0.00, 0.00
153, 187500.00, 108330.38, 8297.77, -9553.20, 6663.86, -19507.17, 6554.60, -10725.33, 0.00, 0.00, 0.00
154, 187500.00, 108362.73, 8332.51, -9539.59, 6734.98, -19492.46, 6584.13, -10704.32, 0.14, 0.96, 0.21
155, 187500.00, 108496.62, 8234.23, -9672.54, 6823.38, -19619.29, 6474.36, -10824.55, 0.00, 0.00, 0.00
156, 187500.00, 108537.25, 8169.96, -9731.61, 6781.34, -19681.74, 6414.35, -10884.52, 0.00, 0.00, 0.00
157, 187500.00, 108375.34, 8288.27, -9573.68, 6685.12, -19530.10, 6549.51, -10736.86, 0.00, 0.00, 0.00
158, 187500.00, 108363.45, 8347.77, -9525.35, 6733.28, -19483.79, 6602.95, -10686.91, 0.00, 0.00, 0.00
159, 187500.00, 108485.62, 8263.06, -9643.15, 6827.43, -19593.52, 6505.72, -10792.34, 0.00, 0.00, 0.00
160, 187500.00, 108553.91, 8172.16, -9742.50, 6808.77, -19693.47, 6410.70, -10891.69, 0.00, 0.00, 0.00
161, 187500.00, 108407.08, 8269.77, -9607.88, 6697.83, -19563.52, 6520.92, -10770.90, 0.00, 0.00, 0.00
162, 187500.00, 108356.52, 8358.19, -9521.28, 6716.50, -19479.03, 6607.98, -10686.44, 0.00, 0.00, 0.00
163, 187500.00, 108472.70, 8289.66, -9620.28, 6816.52, -19573.31, 6524.79, -10780.45, 0.00, 0.00, 0.00
164, 187500.00, 108572.25, 8177.85, -9742.21, 6820.50, -19694.95, 6408.67, -10901.06, 0.14, 0.96, 0.20
165, 187500.00, 108452.41, 8238.96, -9641.27, 6711.36, -19598.50, 6485.16, -10811.29, 0.00, 0.00, 0.00
166, 187500.00, 108360.12, 8349.05, -9518.54, 6699.89, -19479.05, 6604.09, -10692.43, 0.00, 0.00, 0.00
167, 187500.00, 108459.22, 8301.17, -9595.87, 6801.79, -19548.97, 6547.47, -10759.06, 0.00, 0.00, 0.00
168, 187500.00, 108582.94, 8186.39, -9729.58, 6834.63, -19679.15, 6426.04, -10885.46, 0.00, 0.00, 0.00
169, 187500.00, 108494.72, 8210.78, -9675.44, 6731.94, -19627.67, 6461.22, -10839.19, 0.00, 0.00, 0.00
170, 187500.00, 108365.16, 8335.61, -9527.45, 6690.19, -19484.44, 6596.20, -10698.19, 0.00, 0.00, 0.00
171, 187500.00, 108440.06, 8308.19, -9572.38, 6784.94, -19526.06, 6563.10, -10737.46, 0.00, 0.00, 0.00
172, 187500.00, 108571.45, 8196.07, -9706.47, 6834.92, -19658.63, 6435.27, -10868.69, 0.00, 0.00, 0.00
173, 187500.00, 108531.20, 8185.68, -9691.54, 6743.05, -19649.08, 6430.62, -10863.66, 0.00, 0.00, 0.00
174, 187500.00, 108379.65, 8320.68, -9521.78, 6669.07, -19485.07, 6577.20, -10705.97, 0.14, 0.96, 0.20
175, 187500.00, 108421.20, 8321.02, -9539.30, 6746.67, -19497.92, 6569.78, -10718.67, 0.00, 0.00, 0.00
176, 187500.00, 108554.40, 8210.89, -9675.00, 6822.40, -19623.89, 6451.34, -10843.59, 0.00, 0.00, 0.00
177, 187500.00, 108552.43, 8160.51, -9713.84, 6759.30, -19660.35, 6407.80, -10882.50, 0.00, 0.00, 0.00
178, 187500.00, 108379.49, 8284.90, -9556.09, 6665.54, -19502.16, 6545.95, -10730.51, 0.00, 0.00, 0.00
179, 187500.00, 108399.09, 8324.42, -9532.04, 6726.73, -19474.69, 6581.94, -10699.89, 0.00, 0.00, 0.00
180, 187500.00, 108529.70, 8227.27, -9663.69, 6812.79, -19599.98, 6468.68, -10821.95, 0.00, 0.00, 0.00
181, 187500.00, 108582.80, 8160.67, -9730.99, 6773.63, -19672.93, 6399.95, -10893.14, 0.00, 0.00, 0.00
182, 187500.00, 108428.40, 8277.01, -9576.47, 6676.56, -19526.86, 6532.05, -10751.68, 0.00, 0.00, 0.00
183, 187500.00, 108406.41, 8343.73, -9516.46, 6719.40, -19472.59, 6596.94, -10693.68, 0.00, 0.00, 0.00
184, 187500.00, 108527.98, 8268.56, -9628.06, 6821.42, -19580.06, 6501.30, -10798.26, 0.14, 0.96, 0.20
185, 187500.00, 108610.59, 8174.79, -9730.76, 6808.70, -19686.77, 6403.73, -10900.68, 0.00, 0.00, 0.00
186, 187500.00, 108463.09, 8260.58, -9607.36, 6693.56, -19571.37, 6501.83, -10790.37, 0.00, 0.00, 0.00
187, 187500.00, 108400.05, 8360.16, -9505.37, 6704.76, -19473.85, 6602.95, -10692.09, 0.00, 0.00, 0.00
188, 187500.00, 108513.05, 8296.50, -9596.99, 6811.05, -19558.98, 6531.67, -10771.55, 0.00, 0.00, 0.00
189, 187500.00, 108618.73, 8184.07, -9722.99, 6825.73, -19683.88, 6417.77, -10890.51, 0.00, 0.00, 0.00
190, 187500.00, 108505.42, 8239.88, -9632.75, 6719.78, -19597.43, 6489.31, -10809.62, 0.00, 0.00, 0.00
191, 187500.00, 108399.20, 8352.56, -9507.56, 6703.91, -19473.67, 6609.92, -10686.61, 0.00, 0.00, 0.00
192, 187500.00, 108492.03, 8311.45, -9577.61, 6802.31, -19536.70, 6557.55, -10746.18, 0.00, 0.00, 0.00
193, 187500.00, 108611.21, 8193.48, -9717.69, 6837.98, -19670.36, 6433.23, -10876.85, 0.00, 0.00, 0.00
194, 187500.00, 108538.44, 8210.62, -9673.01, 6744.73, -19626.78, 6465.73, -10834.78, 0.14, 0.97, 0.20
195, 187500.00, 108399.92, 8340.98, -9521.73, 6697.95, -19476.73, 6607.02, -10686.61, 0.00, 0.00, 0.00
196, 187500.00, 108469.68, 8322.87, -9564.13, 6787.73, -19512.60, 6579.48, -10720.32, 0.00, 0.00, 0.00
197, 187500.00, 108604.38, 8206.62, -9701.71, 6846.32, -19646.80, 6455.74, -10851.26, 0.00, 0.00, 0.00
198, 187500.00, 108578.27, 8188.96, -9695.92, 6763.97, -19643.70, 6442.64, -10853.87, 0.00, 0.00, 0.00
199, 187500.00, 108417.27, 8319.99, -9527.70, 6679.91, -19480.01, 6584.58, -10697.39, 0.00, 0.00, 0.00
200, 187500.00, 108457.68, 8326.27, -9535.63, 6750.85, -19489.42, 6582.95, -10704.61, 0.00, 0.00, 0.00
201, 187500.00, 108591.23, 8217.73, -9669.95, 6822.94, -19620.88, 6461.46, -10834.09, 0.00, 0.00, 0.00
202, 187500.00, 108607.97, 8164.91, -9712.66, 6766.10, -19666.83, 6412.04, -10882.97, 0.00, 0.00, 0.00
203, 187500.00, 108443.40, 8291.11, -9549.80, 6667.86, -19509.09, 6550.80, -10731.43, 0.00, 0.00, 0.00
204, 187500.00, 108451.69, 8335.48, -9519.41, 6724.03, -19477.29, 6589.61, -10697.61, 0.13, 0.97, 0.20
205, 187500.00, 108580.44, 8235.12, -9648.20, 6812.32, -19597.90, 6478.05, -10817.71, 0.00, 0.00, 0.00
206, 187500.00, 108649.52, 8161.40, -9722.00, 6780.85, -19673.47, 6404.76, -10892.63, 0.00, 0.00, 0.00
207, 187500.00, 108488.79, 8267.15, -9580.56, 6677.07, -19535.33, 6525.01, -10760.26, 0.00, 0.00, 0.00
208, 187500.00, 108462.55, 8345.45, -9509.91, 6710.87, -19466.33, 6602.39, -10688.56, 0.00, 0.00, 0.00
209, 187500.00, 108587.19, 8268.31, -9620.44, 6815.63, -19569.64, 6515.15, -10787.55, 0.00, 0.00, 0.00
210, 187500.00, 108676.91, 8167.62, -9732.49, 6808.32, -19683.91, 6409.65, -10897.01, 0.00, 0.00, 0.00
211, 187500.00, 108541.79, 8254.30, -9609.51, 6695.20, -19566.58, 6508.00, -10783.20, 0.00, 0.00, 0.00
212, 187500.00, 108460.52, 8351.91, -9505.84, 6699.53, -19466.60, 6610.60, -10681.61, 0.00, 0.00, 0.00
213, 187500.00, 108567.16, 8291.87, -9595.96, 6800.76, -19549.17, 6540.08, -10761.40, 0.00, 0.00, 0.00
214, 187500.00, 108679.50, 8181.59, -9723.37, 6819.99, -19675.84, 6423.60, -10883.82, 0.13, 0.97, 0.21
215, 187500.00, 108566.29, 8225.42, -9648.33, 6720.88, -19605.56, 6478.07, -10817.73, 0.00, 0.00, 0.00
216, 187500.00, 108453.55, 8351.24, -9505.73, 6694.30, -19469.13, 6609.99, -10682.88, 0.00, 0.00, 0.00
217, 187500.00, 108536.42, 8311.58, -9570.59, 6793.07, -19529.03, 6561.13, -10740.48, 0.00, 0.00, 0.00
218, 187500.00, 108668.10, 8193.63, -9706.60, 6833.04, -19662.74, 6435.34, -10872.76, 0.00, 0.00, 0.00
219, 187500.00, 108608.77, 8200.05, -9670.82, 6737.46, -19631.85, 6449.66, -10849.13, 0.00, 0.00, 0.00
220, 187500.00, 108459.84, 8328.91, -9514.62, 6678.14, -19482.05, 6585.61, -10702.48, 0.00, 0.00, 0.00
221, 187500.00, 108522.27, 8317.24, -9546.45, 6761.36, -19511.98, 6566.00, -10730.16, 0.00, 0.00, 0.00
222, 187500.00, 108659.63, 8202.62, -9686.73, 6830.09, -19645.78, 6444.59, -10861.67, 0.00, 0.00, 0.00
223, 187500.00, 108644.78, 8178.19, -9696.70, 6757.51, -19659.52, 6423.73, -10876.85, 0.13, 0.97, 0.20
224, 187500.00, 108482.40, 8316.39, -9527.74, 6672.15, -19494.88, 6571.10, -10717.57, 0.00, 0.00, 0.00
225, 187500.00, 108513.94, 8340.84, -9520.77, 6745.24, -19484.15, 6591.10, -10702.93, 0.00, 0.00, 0.00
226, 187500.00, 108645.73, 8234.11, -9653.70, 6829.51, -19610.44, 6476.37, -10824.37, 0.00, 0.00, 0.00
227, 187500.00, 108671.79, 8170.70, -9709.37, 6777.47, -19668.17, 6419.06, -10881.43, 0.00, 0.00, 0.00
228, 187500.00, 108500.91, 8291.36, -9552.71, 6675.88, -19514.99, 6555.39, -10734.60, 0.00, 0.00, 0.00
229, 187500.00, 108493.35, 8346.19, -9506.67, 6729.13, -19469.98, 6610.71, -10685.65, 0.00, 0.00, 0.00
230, 187500.00, 108619.80, 8258.08, -9626.18, 6825.08, -19583.68, 6510.12, -10796.16, 0.00, 0.00, 0.00
231, 187500.00, 108691.30, 8172.67, -9716.35, 6799.29, -19675.61, 6420.96, -10888.23, 0.00, 0.00, 0.00
232, 187500.00, 108535.91, 8275.96, -9575.13, 6693.70, -19538.24, 6538.51, -10758.77, 0.00, 0.00, 0.00
233, 187500.00, 108490.45, 8353.88, -9497.79, 6719.14, -19460.63, 6619.94, -10678.86, 0.13, 0.96, 0.20
234, 187500.00, 108612.95, 8276.43, -9604.90, 6809.59, -19560.28, 6531.43, -10774.86, 0.00, 0.00, 0.00
235, 187500.00, 108709.29, 8164.94, -9728.35, 6807.27, -19681.85, 6415.93, -10894.13, 0.00, 0.00, 0.00
236, 187500.00, 108578.04, 8232.39, -9621.62, 6693.10, -19578.81, 6499.31, -10798.11, 0.00, 0.00, 0.00
237, 187500.00, 108491.36, 8338.68, -9506.55, 6687.49, -19466.76, 6608.94, -10684.83, 0.00, 0.00, 0.00
238, 187500.00, 108590.42, 8283.60, -9591.96, 6790.75, -19543.87, 6543.83, -10757.94, 0.00, 0.00, 0.00
239, 187500.00, 108711.08, 8165.29, -9727.43, 6818.96, -19677.85, 6419.22, -10888.76, 0.00, 0.00, 0.00
240, 187500.00, 108623.51, 8204.21, -9658.05, 6709.19, -19614.57, 6462.43, -10832.37, 0.00, 0.00, 0.00
241, 187500.00, 108494.72, 8324.10, -9518.40, 6670.70, -19476.17, 6592.31, -10696.29, 0.00, 0.00, 0.00
242, 187500.00, 108576.43, 8295.96, -9571.17, 6764.51, -19522.55, 6555.81, -10740.10, 0.00, 0.00, 0.00
243, 187500.00, 108711.64, 8182.26, -9710.74, 6816.72, -19659.52, 6428.54, -10875.38, 0.12, 0.95, 0.19
244, 187500.00, 108663.70, 8182.39, -9687.09, 6730.40, -19641.42, 6435.83, -10861.25, 0.00, 0.00, 0.00
245, 187500.00, 108508.98, 8319.97, -9521.49, 6667.39, -19481.06, 6583.55, -10704.45, 0.00, 0.00, 0.00
246, 187500.00, 108568.63, 8324.21, -9537.65, 6753.42, -19495.28, 6579.97, -10716.36, 0.00, 0.00, 0.00
247, 187500.00, 108702.63, 8206.22, -9680.76, 6817.15, -19634.06, 6448.95, -10850.97, 0.00, 0.00, 0.00
248, 187500.00, 108697.76, 8164.87, -9705.35, 6748.66, -19663.52, 6412.89, -10880.47, 0.00, 0.00, 0.00
249, 187500.00, 108527.51, 8298.06, -9533.55, 6665.58, -19497.18, 6560.26, -10721.19, 0.00, 0.00, 0.00
250, 187500.00, 108545.59, 8322.85, -9521.49, 6731.47, -19483.97, 6582.07, -10704.96, 0.00, 0.00, 0.00
251, 187500.00, 108681.17, 8216.95, -9657.34, 6816.68, -19611.58, 6466.56, -10828.86, 0.00, 0.00, 0.00
252, 187500.00, 108725.88, 8149.89, -9721.76, 6773.43, -19679.41, 6400.09, -10896.63, 0.00, 0.00, 0.00
253, 187500.00, 108560.66, 8282.55, -9555.84, 6674.63, -19521.95, 6536.10, -10745.09, 0.14, 0.97, 0.20
254, 187500.00, 108543.63, 8346.90, -9502.89, 6718.42, -19474.22, 6593.16, -10690.93, 0.00, 0.00, 0.00
255, 187500.00, 108672.63, 8257.58, -9621.33, 6809.68, -19587.88, 6492.98, -10801.17, 0.00, 0.00, 0.00
0, 187500.00, 108756.84, 8164.27, -9716.26, 6789.83, -19684.31, 6399.46, -10895.11, 0.00, 0.00, 0.00
1, 187500.00, 108599.05, 8251.46, -9587.60, 6679.57, -19560.59, 6501.09, -10776.71, 0.00, 0.00, 0.00
2, 187500.00, 108545.55, 8340.29, -9493.77, 6694.82, -19470.58, 6590.17, -10685.83, 0.00, 0.00, 0.00
3, 187500.00, 108668.05, 8270.21, -9588.81, 6789.63, -19560.84, 6511.24, -10773.16, 0.00, 0.00, 0.00
4, 187500.00, 108777.38, 8158.05, -9709.46, 6791.53, -19680.31, 6395.71, -10891.98, 0.00, 0.00, 0.00
5, 187500.00, 108652.18, 8217.89, -9613.71, 6682.77, -19585.38, 6469.02, -10805.28, 0.00, 0.00, 0.00
6, 187500.00, 108549.19, 8326.00, -9493.30, 6669.78, -19466.09, 6585.29, -10685.70, 0.00, 0.00, 0.00
7, 187500.00, 108648.23, 8274.30, -9571.67, 6765.45, -19536.29, 6525.32, -10752.91, 0.15, 0.97, 0.21
8, 187500.00, 108776.28, 8157.51, -9710.98, 6793.34, -19670.83, 6400.85, -10885.50, 0.00, 0.00, 0.00
9, 187500.00, 108691.34, 8182.71, -9659.37, 6698.97, -19622.35, 6440.97, -10840.37, 0.00, 0.00, 0.00
10, 187500.00, 108560.16, 8319.23, -9504.50, 6666.50, -19472.88, 6583.26, -10694.95, 0.00, 0.00, 0.00
11, 187500.00, 108633.30, 8299.63, -9552.11, 6754.79, -19515.35, 6551.27, -10735.14, 0.00, 0.00, 0.00
12, 187500.00, 108763.67, 8178.23, -9695.61, 6803.22, -19651.47, 6426.26, -10870.01, 0.00, 0.00, 0.00
13, 187500.00, 108729.81, 8169.29, -9681.32, 6722.53, -19638.60, 6431.56, -10860.24, 0.00, 0.00, 0.00
14, 187500.00, 108564.19, 8300.77, -9523.12, 6661.02, -19478.54, 6577.74, -10705.86, 0.00, 0.00, 0.00
15, 187500.00, 108609.89, 8304.48, -9541.71, 6737.69, -19489.36, 6579.03, -10713.46, 0.00, 0.00, 0.00
16, 187500.00, 108755.31, 8195.00, -9681.23, 6809.82, -19618.71, 6460.73, -10840.06, 0.00, 0.00, 0.00
17, 187500.00, 108775.48, 8153.42, -9712.17, 6750.32, -19648.05, 6424.87, -10872.60, 0.14, 0.95, 0.21
18, 187500.00, 108603.39, 8279.00, -9553.18, 6665.83, -19488.71, 6565.18, -10721.13, 0.00, 0.00, 0.00
19, 187500.00, 108616.09, 8314.42, -9534.47, 6729.19, -19467.94, 6596.20, -10698.77, 0.00, 0.00, 0.00
20, 187500.00, 108751.07, 8217.01, -9663.42, 6810.62, -19589.20, 6489.69, -10817.28, 0.00, 0.00, 0.00
21, 187500.00, 108807.55, 8143.23, -9738.34, 6772.91, -19663.16, 6418.79, -10888.00, 0.00, 0.00, 0.00
22, 187500.00, 108640.43, 8252.87, -9593.88, 6674.77, -19517.79, 6543.85, -10752.31, 0.00, 0.00, 0.00
23, 187500.00, 108608.89, 8312.66, -9540.42, 6707.80, -19465.87, 6605.07, -10698.75, 0.00, 0.00, 0.00
24, 187500.00, 108740.63, 8229.98, -9648.08, 6803.29, -19570.83, 6519.00, -10798.55, 0.00, 0.00, 0.00
25, 187500.00, 108836.18, 8132.37, -9749.29, 6789.48, -19676.02, 6419.67, -10902.04, 0.00, 0.00, 0.00
26, 187500.00, 108694.20, 8219.90, -9623.50, 6678.95, -19556.61, 6519.62, -10788.76, 0.00, 0.00, 0.00
27, 187500.00, 108627.51, 8317.71, -9521.91, 6688.40, -19461.08, 6618.82, -10692.38, 0.13, 0.94, 0.22
28, 187500.00, 108736.78, 8253.22, -9614.47, 6782.97, -19549.06, 6543.96, -10775.98, 0.00, 0.00, 0.00
29, 187500.00, 108853.57, 8142.16, -9737.02, 6792.56, -19671.26, 6429.66, -10895.96, 0.00, 0.00, 0.00
30, 187500.00, 108735.16, 8192.76, -9653.99, 6694.55, -19593.99, 6493.02, -10823.68, 0.00, 0.00, 0.00
31, 187500.00, 108621.78, 8307.52, -9523.00, 6674.28, -19467.63, 6615.69, -10699.47, 0.00, 0.00, 0.00
32, 187500.00, 108717.25, 8264.98, -9589.84, 6771.28, -19527.87, 6564.68, -10758.21, 0.00, 0.00, 0.00
33, 187500.00, 108858.13, 8155.21, -9716.79, 6809.03, -19652.01, 6449.28, -10880.05, 0.00, 0.00, 0.00
34, 187500.00, 108781.22, 8167.17, -9675.40, 6712.85, -19612.96, 6474.25, -10847.39, 0.00, 0.00, 0.00
35, 187500.00, 108641.27, 8303.36, -9512.48, 6670.86, -19454.64, 6620.59, -10694.44, 0.00, 0.00, 0.00
36, 187500.00, 108718.05, 8297.15, -9540.89, 6763.32, -19480.64, 6605.97, -10717.46, 0.00, 0.00, 0.00
37, 187500.00, 108856.30, 8185.07, -9678.55, 6816.90, -19613.43, 6484.17, -10847.61, 0.13, 0.94, 0.21
38, 187500.00, 108829.34, 8161.45, -9686.04, 6741.58, -19620.18, 6469.60, -10857.65, 0.00, 0.00, 0.00
39, 187500.00, 108663.07, 8294.67, -9522.56, 6671.68, -19455.09, 6618.15, -10698.86, 0.00, 0.00, 0.00
40, 187500.00, 108696.40, 8305.33, -9528.95, 6745.51, -19456.61, 6626.60, -10697.90, 0.00, 0.00, 0.00
41, 187500.00, 108836.97, 8200.47, -9662.01, 6814.69, -19584.84, 6510.66, -10823.54, 0.00, 0.00, 0.00
42, 187500.00, 108861.51, 8148.13, -9706.11, 6756.17, -19632.12, 6459.21, -10873.47, 0.00, 0.00, 0.00
43, 187500.00, 108689.69, 8272.45, -9546.47, 6664.57, -19475.19, 6596.92, -10725.22, 0.00, 0.00, 0.00
44, 187500.00, 108687.43, 8315.92, -9513.42, 6718.38, -19441.99, 6637.31, -10691.76, 0.00, 0.00, 0.00
45, 187500.00, 108815.53, 8221.87, -9633.33, 6802.69, -19555.67, 6534.78, -10803.56, 0.00, 0.00, 0.00
46, 187500.00, 108865.76, 8130.13, -9726.00, 6772.04, -19647.61, 6447.45, -10892.85, 0.00, 0.00, 0.00
47, 187500.00, 108705.31, 8236.19, -9583.80, 6671.28, -19508.65, 6569.09, -10758.16, 0.12, 0.95, 0.21
48, 187500.00, 108671.92, 8314.25, -9510.69, 6703.31, -19439.60, 6645.46, -10686.01, 0.00, 0.00, 0.00
49, 187500.00, 108799.95, 8238.43, -9615.76, 6799.76, -19540.25, 6557.29, -10783.38, 0.00, 0.00, 0.00
50, 187500.00, 108894.63, 8136.57, -9726.38, 6790.26, -19653.80, 6450.40, -10894.62, 0.00, 0.00, 0.00
51, 187500.00, 108756.08, 8217.42, -9609.82, 6688.33, -19541.10, 6542.53, -10788.11, 0.00, 0.00, 0.00
52, 187500.00, 108681.13, 8328.68, -9495.02, 6693.12, -19430.08, 6653.80, -10676.74, 0.00, 0.00, 0.00
53, 187500.00, 108782.09, 8267.78, -9586.26, 6785.97, -19514.19, 6581.72, -10757.31, 0.00, 0.00, 0.00
54, 187500.00, 108897.18, 8151.88, -9718.58, 6802.73, -19644.66, 6460.59, -10884.79, 0.00, 0.00, 0.00
55, 187500.00, 108788.04, 8191.20, -9646.32, 6704.63, -19576.62, 6512.65, -10822.22, 0.00, 0.00, 0.00
56, 187500.00, 108668.16, 8308.95, -9510.60, 6683.04, -19445.17, 6641.53, -10691.31, 0.13, 0.96, 0.20
57, 187500.00, 108768.86, 8277.63, -9567.28, 6775.77, -19497.63, 6599.33, -10741.11, 0.00, 0.00, 0.00
58, 187500.00, 108914.99, 8163.28, -9701.30, 6811.54, -19630.24, 6472.86, -10873.16, 0.00, 0.00, 0.00
59, 187500.00, 108867.92, 8166.17, -9670.73, 6723.47, -19602.95, 6487.73, -10850.90, 0.00, 0.00, 0.00
60, 187500.00, 108723.44, 8296.95, -9514.42, 6668.33, -19448.77, 6630.44, -10700.16, 0.00, 0.00, 0.00
61, 187500.00, 108785.49, 8288.03, -9546.50, 6749.20, -19475.95, 6613.81, -10724.59, 0.00, 0.00, 0.00
62, 187500.00, 108927.22, 8174.12, -9689.53, 6807.92, -19611.80, 6488.67, -10858.66, 0.00, 0.00, 0.00
63, 187500.00, 108919.06, 8143.39, -9710.45, 6734.13, -19630.91, 6462.11, -10880.65, 0.00, 0.00, 0.00
64, 187500.00, 108756.72, 8278.64, -9547.26, 6657.98, -19466.87, 6610.37, -10722.56, 0.00, 0.00, 0.00
65, 187500.00, 108782.90, 8298.69, -9545.85, 6731.43, -19461.55, 6626.67, -10715.31, 0.00, 0.00, 0.00
66, 187500.00, 108923.94, 8199.65, -9672.43, 6813.39, -19581.45, 6518.17, -10832.93, 0.13, 0.96, 0.20
67, 187500.00, 108958.96, 8133.53, -9731.86, 6768.69, -19642.73, 6454.47, -10894.04, 0.00, 0.00, 0.00
68, 187500.00, 108788.46, 8251.53, -9574.73, 6666.65, -19489.96, 6586.86, -10746.54, 0.00, 0.00, 0.00
69, 187500.00, 108783.45, 8306.71, -9527.77, 6712.05, -19442.53, 6641.55, -10696.25, 0.00, 0.00, 0.00
70, 187500.00, 108907.06, 8210.29, -9652.51, 6799.83, -19559.14, 6535.63, -10809.44, 0.00, 0.00, 0.00
71, 187500.00, 108971.41, 8117.10, -9748.56, 6775.44, -19656.10, 6441.01, -10905.62, 0.00, 0.00, 0.00
72, 187500.00, 108826.08, 8219.36, -9609.33, 6669.11, -19523.38, 6552.50, -10780.89, 0.00, 0.00, 0.00
73, 187500.00, 108785.38, 8305.66, -9524.99, 6690.39, -19442.96, 6635.65, -10699.60, 0.00, 0.00, 0.00
74, 187500.00, 108898.61, 8229.20, -9630.43, 6784.89, -19541.59, 6547.23, -10795.80, 0.00, 0.00, 0.00
75, 187500.00, 109000.58, 8120.14, -9749.92, 6781.36, -19662.54, 6432.05, -10914.18, 0.00, 0.00, 0.00
76, 187500.00, 108877.91, 8187.13, -9646.81, 6667.68, -19567.95, 6507.93, -10825.42, 0.11, 0.98, 0.19
77, 187500.00, 108794.90, 8296.25, -9529.20, 6664.15, -19455.11, 6620.61, -10710.98, 0.00, 0.00, 0.00
78, 187500.00, 108893.41, 8244.37, -9609.06, 6766.32, -19528.54, 6561.27, -10778.26, 0.00, 0.00, 0.00
79, 187500.00, 109016.83, 8140.57, -9736.02, 6798.37, -19654.87, 6443.47, -10900.30, 0.00, 0.00, 0.00
80, 187500.00, 108938.09, 8175.44, -9674.39, 6698.19, -19598.88, 6487.88, -10846.12, 0.00, 0.00, 0.00
81, 187500.00, 108819.38, 8302.42, -9528.86, 6660.69, -19459.65, 6621.82, -10707.74, 0.00, 0.00, 0.00
82, 187500.00, 108897.43, 8282.30, -9577.10, 6756.60, -19503.86, 6590.93, -10746.99, 0.00, 0.00, 0.00
83, 187500.00, 109031.58, 8169.43, -9715.79, 6807.29, -19639.16, 6466.61, -10878.28, 0.00, 0.00, 0.00
84, 187500.00, 108988.06, 8162.05, -9699.90, 6717.44, -19625.10, 6470.52, -10867.22, 0.00, 0.00, 0.00
85, 187500.00, 108832.98, 8295.65, -9538.41, 6653.71, -19465.75, 6615.89, -10712.27, 0.00, 0.00, 0.00
86, 187500.00, 108883.45, 8301.19, -9551.48, 6737.20, -19475.72, 6613.59, -10719.96, 0.10, 0.98, 0.19
87, 187500.00, 109009.52, 8186.62, -9693.66, 6807.13, -19612.11, 6485.38, -10854.92, 0.00, 0.00, 0.00
88, 187500.00, 109006.23, 8143.03, -9723.88, 6737.26, -19642.87, 6450.44, -10886.75, 0.00, 0.00, 0.00
89, 187500.00, 108844.74, 8279.24, -9553.20, 6654.83, -19474.63, 6601.59, -10724.61, 0.00, 0.00, 0.00
90, 187500.00, 108853.46, 8306.69, -9540.77, 6720.79, -19458.27, 6628.16, -10707.20, 0.00, 0.00, 0.00
91, 187500.00, 108975.34, 8206.42, -9674.06, 6808.52, -19581.45, 6519.87, -10828.21, 0.00, 0.00, 0.00
92, 187500.00, 109012.45, 8133.33, -9746.03, 6767.01, -19651.97, 6450.09, -10897.19, 0.00, 0.00, 0.00
93, 187500.00, 108848.39, 8246.56, -9592.47, 6669.45, -19498.66, 6582.79, -10751.97, 0.00, 0.00, 0.00
94, 187500.00, 108824.80, 8302.80, -9540.06, 6711.76, -19447.25, 6641.75, -10697.97, 0.00, 0.00, 0.00
95, 187500.00, 108939.94, 8214.71, -9656.31, 6798.82, -19557.80, 6542.11, -10806.46, 0.00, 0.00, 0.00
96, 187500.00, 109013.77, 8113.28, -9755.58, 6777.12, -19658.94, 6444.52, -10908.10, 0.12, 0.96, 0.19
97, 187500.00, 108863.97, 8200.21, -9626.16, 6662.92, -19536.79, 6545.28, -10793.52, 0.00, 0.00, 0.00
98, 187500.00, 108806.26, 8295.76, -9525.51, 6675.46, -19441.21, 6643.12, -10695.94, 0.00, 0.00, 0.00
99, 187500.00, 108916.47, 8231.57, -9616.19, 6779.08, -19524.90, 6568.60, -10776.94, 0.00, 0.00, 0.00
100, 187500.00, 109008.98, 8114.71, -9747.17, 6788.02, -19654.27, 6444.99, -10904.43, 0.00, 0.00, 0.00
101, 187500.00, 108891.48, 8172.65, -9656.04, 6675.04, -19566.94, 6514.82, -10822.69, 0.00, 0.00, 0.00
102, 187500.00, 108795.84, 8288.50, -9527.16, 6657.60, -19442.87, 6635.70, -10696.47, 0.00, 0.00, 0.00
103, 187500.00, 108886.14, 8238.85, -9604.23, 6750.85, -19515.58, 6576.24, -10764.00, 0.00, 0.00, 0.00
104, 187500.00, 109005.95, 8119.74, -9742.39, 6779.13, -19652.05, 6448.28, -10896.83, 0.00, 0.00, 0.00
105, 187500.00, 108933.13, 8142.83, -9687.31, 6682.70, -19603.75, 6481.09, -10851.19, 0.00, 0.00, 0.00
106, 187500.00, 108800.09, 8267.11, -9538.16, 6639.54, -19461.15, 6616.16, -10707.47, 0.14, 0.95, 0.20
107, 187500.00, 108871.32, 8246.61, -9581.16, 6728.79, -19501.96, 6585.25, -10742.43, 0.00, 0.00, 0.00
108, 187500.00, 109010.93, 8140.62, -9712.57, 6779.89, -19632.45, 6464.88, -10868.63, 0.00, 0.00, 0.00
109, 187500.00, 108991.44, 8130.47, -9701.68, 6702.39, -19626.11, 6462.49, -10862.97, 0.00, 0.00, 0.00
110, 187500.00, 108843.25, 8265.65, -9538.76, 6636.30, -19466.83, 6608.92, -10705.97, 0.00, 0.00, 0.00
111, 187500.00, 108885.83, 8270.17, -9552.58, 6715.34, -19479.34, 6609.70, -10712.83, 0.00, 0.00, 0.00
112, 187500.00, 109028.85, 8167.77, -9680.25, 6792.76, -19600.62, 6501.76, -10830.58, 0.00, 0.00, 0.00
113, 187500.00, 109052.26, 8126.74, -9709.37, 6739.79, -19632.97, 6467.59, -10864.15, 0.00, 0.00, 0.00
114, 187500.00, 108888.77, 8254.25, -9545.16, 6645.26, -19475.28, 6609.57, -10711.25, 0.00, 0.00, 0.00
115, 187500.00, 108895.93, 8289.05, -9521.51, 6702.33, -19450.60, 6641.53, -10682.88, 0.00, 0.00, 0.00
116, 187500.00, 109023.94, 8196.74, -9647.57, 6792.16, -19567.01, 6535.56, -10796.92, 0.13, 0.97, 0.20
117, 187500.00, 109072.38, 8116.48, -9729.22, 6758.03, -19647.99, 6457.93, -10875.38, 0.00, 0.00, 0.00
118, 187500.00, 108918.05, 8222.58, -9584.94, 6650.02, -19506.95, 6579.84, -10738.90, 0.00, 0.00, 0.00
119, 187500.00, 108903.98, 8297.26, -9517.93, 6684.38, -19439.20, 6651.74, -10667.93, 0.00, 0.00, 0.00
120, 187500.00, 109029.01, 8209.66, -9634.18, 6786.50, -19549.66, 6555.12, -10773.56, 0.00, 0.00, 0.00
121, 187500.00, 109125.48, 8114.15, -9737.74, 6776.13, -19655.47, 6451.12, -10878.12, 0.00, 0.00, 0.00
122, 187500.00, 108990.03, 8202.06, -9614.29, 6662.32, -19540.14, 6546.11, -10769.43, 0.00, 0.00, 0.00
123, 187500.00, 108915.13, 8295.04, -9515.63, 6667.19, -19445.35, 6641.31, -10675.15, 0.00, 0.00, 0.00
124, 187500.00, 109016.02, 8224.95, -9612.86, 6760.51, -19534.13, 6564.86, -10760.71, 0.00, 0.00, 0.00
125, 187500.00, 109134.27, 8115.87, -9732.42, 6777.03, -19651.18, 6457.15, -10874.17, 0.00, 0.00, 0.00
126, 187500.00, 109032.43, 8167.28, -9647.37, 6676.49, -19570.52, 6523.38, -10793.52, 0.12, 0.96, 0.21
127, 187500.00, 108920.67, 8281.97, -9516.79, 6652.08, -19444.74, 6645.35, -10666.72, 0.00, 0.00, 0.00
128, 187500.00, 109001.70, 8242.18, -9581.10, 6746.87, -19501.56, 6598.41, -10721.55, 0.00, 0.00, 0.00
129, 187500.00, 109125.75, 8125.84, -9716.71, 6790.19, -19633.57, 6476.33, -10850.88, 0.00, 0.00, 0.00
130, 187500.00, 109062.45, 8140.86, -9674.33, 6697.34, -19595.60, 6500.45, -10818.87, 0.00, 0.00, 0.00
131, 187500.00, 108919.80, 8273.30, -9517.35, 6649.73, -19443.18, 6642.58, -10670.32, 0.00, 0.00, 0.00
132, 187500.00, 108980.58, 8260.69, -9551.73, 6741.11, -19472.37, 6624.07, -10697.12, 0.00, 0.00, 0.00
133, 187500.00, 109116.85, 8149.74, -9687.80, 6806.66, -19602.21, 6507.40, -10823.03, 0.00, 0.00, 0.00
134, 187500.00, 109095.46, 8124.37, -9698.15, 6730.31, -19615.49, 6487.50, -10837.49, 0.00, 0.00, 0.00
135, 187500.00, 108933.08, 8263.78, -9529.91, 6649.67, -19451.47, 6635.29, -10677.12, 0.13, 0.95, 0.21
136, 187500.00, 108965.33, 8288.88, -9524.88, 6731.38, -19441.48, 6657.42, -10662.74, 0.00, 0.00, 0.00
137, 187500.00, 109097.32, 8183.24, -9659.89, 6813.93, -19567.77, 6543.07, -10786.21, 0.00, 0.00, 0.00
138, 187500.00, 109128.45, 8129.37, -9703.81, 6758.74, -19615.31, 6494.77, -10833.64, 0.00, 0.00, 0.00
139, 187500.00, 108965.29, 8254.90, -9537.98, 6660.44, -19457.55, 6635.43, -10677.99, 0.00, 0.00, 0.00
140, 187500.00, 108963.72, 8294.87, -9503.49, 6708.05, -19426.95, 6671.57, -10645.78, 0.00, 0.00, 0.00
141, 187500.00, 109095.09, 8198.60, -9628.37, 6799.38, -19545.64, 6561.38, -10763.64, 0.00, 0.00, 0.00
142, 187500.00, 109160.62, 8111.16, -9714.83, 6770.37, -19639.74, 6471.19, -10854.03, 0.00, 0.00, 0.00
143, 187500.00, 108998.45, 8207.47, -9576.40, 6652.73, -19512.09, 6578.39, -10733.51, 0.00, 0.00, 0.00
144, 187500.00, 108952.73, 8286.77, -9500.30, 6676.94, -19441.26, 6652.50, -10661.04, 0.00, 0.00, 0.00
145, 187500.00, 109063.73, 8208.81, -9608.99, 6774.46, -19541.15, 6563.90, -10757.76, 0.14, 0.94, 0.21
146, 187500.00, 109161.20, 8106.06, -9722.83, 6775.13, -19653.78, 6459.52, -10867.40, 0.00, 0.00, 0.00
147, 187500.00, 109025.28, 8177.74, -9614.74, 6666.52, -19546.53, 6549.91, -10766.19, 0.00, 0.00, 0.00
148, 187500.00, 108944.95, 8286.22, -9503.60, 6664.64, -19436.21, 6656.19, -10656.60, 0.00, 0.00, 0.00
149, 187500.00, 109046.29, 8230.34, -9590.69, 6760.75, -19515.80, 6588.13, -10734.40, 0.00, 0.00, 0.00
150, 187500.00, 109157.69, 8110.13, -9727.64, 6782.55, -19651.05, 6461.84, -10866.66, 0.00, 0.00, 0.00
151, 187500.00, 109063.45, 8147.19, -9657.36, 6675.64, -19585.74, 6509.63, -10808.10, 0.00, 0.00, 0.00
152, 187500.00, 108950.04, 8274.08, -9511.40, 6639.09, -19444.79, 6643.47, -10668.35, 0.00, 0.00, 0.00
153, 187500.00, 109031.38, 8242.34, -9567.17, 6734.38, -19497.47, 6601.39, -10715.63, 0.00, 0.00, 0.00
154, 187500.00, 109158.41, 8126.29, -9703.99, 6783.37, -19631.36, 6476.15, -10845.87, 0.00, 0.00, 0.00
155, 187500.00, 109102.91, 8127.61, -9677.32, 6692.02, -19608.25, 6487.48, -10825.60, 0.14, 0.94, 0.21
156, 187500.00, 108950.65, 8258.66, -9518.92, 6625.91, -19454.33, 6632.01, -10673.18, 0.00, 0.00, 0.00
157, 187500.00, 109004.49, 8259.44, -9538.81, 6718.20, -19470.98, 6627.38, -10685.68, 0.00, 0.00, 0.00
158, 187500.00, 109142.91, 8152.64, -9671.13, 6790.62, -19596.64, 6510.77, -10810.44, 0.00, 0.00, 0.00
159, 187500.00, 109133.26, 8115.02, -9692.59, 6721.10, -19618.77, 6481.16, -10835.10, 0.00, 0.00, 0.00
160, 187500.00, 108967.70, 8245.20, -9525.44, 6632.72, -19453.66, 6628.70, -10675.33, 0.00, 0.00, 0.00
161, 187500.00, 108990.77, 8275.49, -9512.75, 6702.86, -19436.45, 6654.99, -10656.89, 0.00, 0.00, 0.00
162, 187500.00, 109128.43, 8175.46, -9641.04, 6791.67, -19553.04, 6547.23, -10771.84, 0.00, 0.00, 0.00
163, 187500.00, 109166.09, 8110.62, -9700.63, 6749.85, -19611.73, 6487.39, -10830.78, 0.00, 0.00, 0.00
164, 187500.00, 108996.45, 8228.37, -9543.28, 6645.15, -19461.15, 6620.03, -10682.61, 0.00, 0.00, 0.00
165, 187500.00, 108980.11, 8284.76, -9495.24, 6686.99, -19418.37, 6666.74, -10635.29, 0.15, 0.95, 0.21
166, 187500.00, 109106.73, 8195.07, -9612.39, 6775.91, -19533.44, 6559.72, -10747.32, 0.00, 0.00, 0.00
167, 187500.00, 109179.69, 8103.31, -9705.15, 6755.32, -19630.20, 6463.21, -10846.09, 0.00, 0.00, 0.00
168, 187500.00, 109025.97, 8194.60, -9576.92, 6638.00, -19514.62, 6560.97, -10735.25, 0.00, 0.00, 0.00
169, 187500.00, 108976.66, 8282.62, -9491.82, 6657.38, -19436.67, 6644.70, -10651.86, 0.00, 0.00, 0.00
170, 187500.00, 109095.91, 8219.54, -9588.58, 6764.15, -19528.41, 6566.54, -10738.72, 0.00, 0.00, 0.00
171, 187500.00, 109205.86, 8116.90, -9707.12, 6774.66, -19647.14, 6457.28, -10854.14, 0.00, 0.00, 0.00
172, 187500.00, 109086.95, 8181.88, -9609.82, 6660.13, -19551.07, 6537.84, -10761.36, 0.00, 0.00, 0.00
173, 187500.00, 108990.14, 8287.00, -9498.17, 6645.40, -19437.88, 6649.33, -10647.90, 0.00, 0.00, 0.00
174, 187500.00, 109083.39, 8233.94, -9580.34, 6747.48, -19509.92, 6588.82, -10716.36, 0.00, 0.00, 0.00
175, 187500.00, 109200.65, 8117.95, -9715.05, 6783.28, -19639.76, 6466.76, -10842.85, 0.15, 0.96, 0.21
176, 187500.00, 109115.09, 8145.40, -9656.94, 6680.73, -19584.91, 6504.78, -10792.00, 0.00, 0.00, 0.00
177, 187500.00, 108986.48, 8267.51, -9508.86, 6638.87, -19443.89, 6638.65, -10653.04, 0.00, 0.00, 0.00
178, 187500.00, 109061.06, 8244.64, -9551.59, 6739.63, -19485.56, 6607.82, -10691.89, 0.00, 0.00, 0.00
179, 187500.00, 109197.55, 8142.94, -9678.04, 6793.30, -19611.67, 6487.35, -10814.91, 0.00, 0.00, 0.00
180, 187500.00, 109161.29, 8137.69, -9659.02, 6704.88, -19599.26, 6484.75, -10807.92, 0.00, 0.00, 0.00
181, 187500.00, 109010.62, 8274.15, -9491.04, 6633.77, -19437.77, 6631.90, -10651.17, 0.00, 0.00, 0.00
182, 187500.00, 109054.38, 8277.88, -9510.00, 6722.98, -19452.97, 6628.99, -10662.50, 0.00, 0.00, 0.00
183, 187500.00, 109191.71, 8173.09, -9640.80, 6802.13, -19573.62, 6516.47, -10781.27, 0.00, 0.00, 0.00
184, 187500.00, 109192.16, 8129.02, -9672.25, 6741.35, -19603.75, 6481.98, -10812.52, 0.00, 0.00, 0.00
185, 187500.00, 109027.83, 8253.81, -9510.24, 6642.85, -19443.87, 6626.91, -10657.94, 0.14, 0.96, 0.20
186, 187500.00, 109046.89, 8291.11, -9485.63, 6710.60, -19415.19, 6665.49, -10626.58, 0.00, 0.00, 0.00
187, 187500.00, 109171.70, 8188.96, -9615.32, 6805.39, -19536.12, 6556.06, -10744.19, 0.00, 0.00, 0.00
188, 187500.00, 109211.49, 8109.21, -9693.30, 6768.17, -19614.71, 6478.25, -10822.60, 0.00, 0.00, 0.00
189, 187500.00, 109051.61, 8212.01, -9550.16, 6649.06, -19476.01, 6592.51, -10691.93, 0.00, 0.00, 0.00
190, 187500.00, 109028.30, 8271.53, -9494.53, 6678.12, -19422.14, 6645.93, -10638.11, 0.00, 0.00, 0.00
191, 187500.00, 109150.16, 8191.78, -9607.65, 6777.70, -19529.21, 6548.64, -10742.56, 0.00, 0.00, 0.00
192, 187500.00, 109229.10, 8090.64, -9716.88, 6768.09, -19639.92, 6441.37, -10851.59, 0.00, 0.00, 0.00
193, 187500.00, 109080.51, 8162.50, -9600.90, 6638.60, -19530.04, 6529.10, -10749.85, 0.00, 0.00, 0.00
194, 187500.00, 109019.20, 8254.01, -9504.12, 6644.68, -19439.67, 6619.40, -10654.79, 0.00, 0.00, 0.00
195, 187500.00, 109130.87, 8198.24, -9590.73, 6746.94, -19523.91, 6545.53, -10735.92, 0.14, 0.96, 0.20
196, 187500.00, 109236.52, 8091.53, -9711.09, 6763.28, -19645.28, 6431.31, -10853.76, 0.00, 0.00, 0.00
197, 187500.00, 109118.71, 8138.45, -9628.73, 6641.98, -19569.26, 6490.70, -10781.97, 0.00, 0.00, 0.00
198, 187500.00, 109010.75, 8240.62, -9512.79, 6611.53, -19458.67, 6598.86, -10670.90, 0.00, 0.00, 0.00
199, 187500.00, 109105.97, 8201.03, -9581.90, 6713.90, -19522.42, 6545.06, -10731.94, 0.00, 0.00, 0.00
200, 187500.00, 109234.54, 8093.21, -9710.76, 6758.94, -19646.98, 6428.54, -10853.65, 0.00, 0.00, 0.00
201, 187500.00, 109160.91, 8105.39, -9671.51, 6658.25, -19610.32, 6452.93, -10820.17, 0.00, 0.00, 0.00
202, 187500.00, 109032.88, 8236.17, -9520.84, 6606.08, -19463.45, 6593.63, -10675.39, 0.00, 0.00, 0.00
203, 187500.00, 109095.02, 8218.31, -9566.17, 6705.63, -19500.60, 6568.17, -10708.74, 0.00, 0.00, 0.00
204, 187500.00, 109236.26, 8114.20, -9695.99, 6775.46, -19623.87, 6455.47, -10827.36, 0.00, 0.00, 0.00
205, 187500.00, 109219.65, 8101.34, -9687.29, 6701.23, -19619.04, 6452.41, -10825.31, 0.14, 0.95, 0.21
206, 187500.00, 109070.54, 8234.90, -9524.91, 6622.69, -19460.48, 6598.35, -10671.17, 0.00, 0.00, 0.00
207, 187500.00, 109120.36, 8253.65, -9524.99, 6705.84, -19455.43, 6614.24, -10661.45, 0.00, 0.00, 0.00
208, 187500.00, 109252.17, 8150.54, -9658.12, 6793.16, -19578.45, 6504.31, -10779.31, 0.00, 0.00, 0.00
209, 187500.00, 109277.56, 8101.34, -9698.11, 6742.76, -19617.32, 6464.15, -10817.89, 0.00, 0.00, 0.00
210, 187500.00, 109115.91, 8219.63, -9542.16, 6640.57, -19465.93, 6602.57, -10669.29, 0.00, 0.00, 0.00
211, 187500.00, 109124.50, 8262.95, -9515.56, 6699.00, -19438.89, 6638.62, -10638.74, 0.00, 0.00, 0.00
212, 187500.00, 109257.89, 8169.52, -9640.80, 6790.84, -19558.83, 6528.14, -10756.08, 0.00, 0.00, 0.00
213, 187500.00, 109322.02, 8095.02, -9713.78, 6760.06, -19640.14, 6448.68, -10836.73, 0.00, 0.00, 0.00
214, 187500.00, 109167.01, 8197.90, -9571.40, 6640.99, -19507.57, 6558.78, -10714.11, 0.00, 0.00, 0.00
215, 187500.00, 109138.09, 8269.23, -9498.93, 6665.25, -19443.71, 6625.77, -10648.42, 0.14, 0.96, 0.21
216, 187500.00, 109255.28, 8192.67, -9604.81, 6772.67, -19545.35, 6531.78, -10746.41, 0.00, 0.00, 0.00
217, 187500.00, 109341.66, 8093.19, -9714.09, 6773.65, -19654.69, 6424.41, -10855.59, 0.00, 0.00, 0.00
218, 187500.00, 109208.01, 8168.76, -9597.15, 6649.67, -19545.30, 6513.03, -10753.47, 0.00, 0.00, 0.00
219, 187500.00, 109136.21, 8268.60, -9490.46, 6648.37, -19442.04, 6614.22, -10650.52, 0.00, 0.00, 0.00
220, 187500.00, 109234.49, 8207.78, -9581.99, 6752.66, -19522.37, 6542.36, -10728.55, 0.00, 0.00, 0.00
221, 187500.00, 109353.91, 8100.00, -9704.23, 6774.84, -19639.18, 6431.13, -10844.46, 0.00, 0.00, 0.00
222, 187500.00, 109248.77, 8138.74, -9632.19, 6660.69, -19570.25, 6482.65, -10781.30, 0.00, 0.00, 0.00
223, 187500.00, 109123.70, 8253.11, -9505.08, 6623.09, -19445.66, 6600.98, -10657.13, 0.00, 0.00, 0.00
224, 187500.00, 109218.02, 8232.24, -9554.97, 6731.76, -19488.66, 6569.96, -10696.36, 0.15, 0.96, 0.22
225, 187500.00, 109342.18, 8125.06, -9685.28, 6787.04, -19616.18, 6450.83, -10822.07, 0.00, 0.00, 0.00
226, 187500.00, 109273.05, 8133.11, -9653.88, 6685.50, -19589.49, 6464.30, -10798.11, 0.00, 0.00, 0.00
227, 187500.00, 109128.97, 8265.65, -9496.47, 6618.78, -19436.50, 6608.70, -10647.79, 0.00, 0.00, 0.00
228, 187500.00, 109183.26, 8258.92, -9527.54, 6717.91, -19460.12, 6597.47, -10667.75, 0.00, 0.00, 0.00
229, 187500.00, 109314.47, 8149.04, -9662.97, 6793.37, -19586.92, 6485.43, -10789.12, 0.00, 0.00, 0.00
230, 187500.00, 109302.46, 8121.28, -9673.57, 6719.16, -19597.32, 6470.09, -10801.21, 0.00, 0.00, 0.00
231, 187500.00, 109138.52, 8247.55, -9515.03, 6625.12, -19439.74, 6614.10, -10648.48, 0.00, 0.00, 0.00
232, 187500.00, 109163.66, 8266.08, -9515.18, 6701.88, -19432.29, 6633.55, -10637.64, 0.00, 0.00, 0.00
233, 187500.00, 109302.44, 8170.43, -9640.73, 6797.50, -19546.24, 6532.90, -10749.65, 0.00, 0.00, 0.00
234, 187500.00, 109328.34, 8110.02, -9694.38, 6751.10, -19599.44, 6478.38, -10802.13, 0.15, 0.95, 0.20
235, 187500.00, 109155.59, 8221.49, -9542.00, 6638.98, -19452.03, 6606.33, -10660.42, 0.00, 0.00, 0.00
236, 187500.00, 109152.05, 8267.53, -9502.22, 6683.57, -19409.67, 6652.10, -10616.79, 0.00, 0.00, 0.00
237, 187500.00, 109282.68, 8179.22, -9620.84, 6780.25, -19516.89, 6552.70, -10722.78, 0.00, 0.00, 0.00
238, 187500.00, 109348.95, 8085.54, -9714.60, 6756.69, -19607.17, 6464.88, -10810.85, 0.00, 0.00, 0.00
239, 187500.00, 109186.99, 8169.34, -9591.58, 6626.42, -19485.42, 6565.13, -10696.74, 0.00, 0.00, 0.00
240, 187500.00, 109138.65, 8243.86, -9520.39, 6645.08, -19413.88, 6641.22, -10625.97, 0.00, 0.00, 0.00
241, 187500.00, 109253.87, 8170.79, -9625.82, 6752.08, -19512.80, 6557.42, -10720.46, 0.00, 0.00, 0.00
242, 187500.00, 109351.21, 8070.81, -9739.24, 6756.44, -19628.09, 6449.75, -10834.76, 0.00, 0.00, 0.00
243, 187500.00, 109216.12, 8135.14, -9639.35, 6633.42, -19534.51, 6526.80, -10748.42, 0.00, 0.00, 0.00
244, 187500.00, 109115.16, 8224.48, -9540.33, 6609.32, -19442.93, 6619.33, -10658.67, 0.15, 0.94, 0.20
245, 187500.00, 109222.98, 8177.59, -9615.18, 6719.31, -19512.09, 6559.99, -10725.08, 0.00, 0.00, 0.00
246, 187500.00, 109357.67, 8076.44, -9733.27, 6758.74, -19629.32, 6449.53, -10838.38, 0.00, 0.00, 0.00
247, 187500.00, 109276.53, 8106.71, -9670.42, 6645.91, -19572.84, 6489.78, -10786.21, 0.00, 0.00, 0.00
248, 187500.00, 109166.09, 8231.57, -9526.54, 6601.30, -19434.28, 6622.22, -10648.39, 0.00, 0.00, 0.00
249, 187500.00, 109254.38, 8207.16, -9577.66, 6703.98, -19480.62, 6589.03, -10690.97, 0.00, 0.00, 0.00
250, 187500.00, 109390.57, 8098.55, -9710.09, 6767.28, -19610.23, 6472.13, -10816.01, 0.00, 0.00, 0.00
251, 187500.00, 109342.70, 8093.16, -9691.69, 6675.73, -19597.21, 6475.66, -10806.87, 0.00, 0.00, 0.00
252, 187500.00, 109198.51, 8225.84, -9531.86, 6600.58, -19442.49, 6619.20, -10656.82, 0.00, 0.00, 0.00
253, 187500.00, 109251.88, 8230.58, -9550.77, 6687.84, -19458.02, 6613.59, -10669.36, 0.00, 0.00, 0.00
254, 187500.00, 109390.64, 8128.66, -9677.97, 6769.92, -19578.96, 6502.30, -10787.53, 0.14, 0.96, 0.21
255, 187500.00, 109391.65, 8091.85, -9696.57, 6699.58, -19600.71, 6473.82, -10810.96, 0.00, 0.00, 0.00
0, 187500.00, 109231.81, 8220.61, -9530.38, 6596.67, -19436.90, 6620.34, -10653.38, 0.00, 0.00, 0.00
1, 187500.00, 109255.50, 8245.13, -9516.25, 6680.78, -19415.31, 6647.70, -10632.05, 0.00, 0.00, 0.00
2, 187500.00, 109388.56, 8142.27, -9645.67, 6775.93, -19530.08, 6540.25, -10747.59, 0.00, 0.00, 0.00
3, 187500.00, 109429.29, 8076.87, -9708.79, 6717.06, -19592.98, 6476.86, -10810.13, 0.00, 0.00, 0.00
4, 187500.00, 109268.22, 8189.54, -9557.14, 6602.86, -19447.00, 6605.59, -10669.09, 0.00, 0.00, 0.00
5, 187500.00, 109250.72, 8245.07, -9510.82, 6646.60, -19399.28, 6658.54, -10619.49, 0.00, 0.00, 0.00
6, 187500.00, 109373.36, 8161.54, -9625.60, 6752.60, -19507.06, 6563.30, -10720.83, 0.00, 0.00, 0.00
7, 187500.00, 109450.99, 8071.17, -9720.53, 6743.68, -19603.69, 6470.56, -10814.18, 0.00, 0.00, 0.00
8, 187500.00, 109303.34, 8154.45, -9596.10, 6616.65, -19488.08, 6568.37, -10704.70, 0.14, 0.96, 0.20
9, 187500.00, 109247.19, 8241.45, -9508.45, 6627.72, -19410.23, 6649.15, -10626.33, 0.00, 0.00, 0.00
10, 187500.00, 109358.12, 8182.21, -9600.39, 6737.29, -19498.43, 6572.55, -10712.54, 0.00, 0.00, 0.00
11, 187500.00, 109459.98, 8077.43, -9717.91, 6748.91, -19616.00, 6464.26, -10829.04, 0.00, 0.00, 0.00
12, 187500.00, 109339.61, 8134.85, -9628.06, 6642.16, -19532.65, 6533.84, -10750.88, 0.00, 0.00, 0.00
13, 187500.00, 109241.38, 8246.92, -9506.53, 6620.54, -19417.74, 6650.78, -10634.78, 0.00, 0.00, 0.00
14, 187500.00, 109333.73, 8204.90, -9579.09, 6734.31, -19480.80, 6602.06, -10693.72, 0.00, 0.00, 0.00
15, 187500.00, 109446.07, 8087.93, -9717.35, 6778.97, -19610.79, 6480.73, -10820.61, 0.00, 0.00, 0.00
16, 187500.00, 109355.52, 8104.52, -9668.92, 6670.16, -19563.90, 6511.64, -10779.98, 0.00, 0.00, 0.00
17, 187500.00, 109214.17, 8228.88, -9523.07, 6613.61, -19420.78, 6645.33, -10639.50, 0.00, 0.00, 0.00
18, 187500.00, 109277.32, 8208.79, -9568.87, 6711.92, -19459.29, 6616.09, -10675.64, 0.13, 0.95, 0.20
19, 187500.00, 109407.72, 8101.86, -9699.18, 6774.75, -19583.17, 6499.42, -10798.35, 0.00, 0.00, 0.00
20, 187500.00, 109367.44, 8088.31, -9689.91, 6689.30, -19576.91, 6495.53, -10796.67, 0.00, 0.00, 0.00
21, 187500.00, 109206.17, 8216.39, -9531.10, 6602.91, -19422.79, 6635.29, -10647.12, 0.00, 0.00, 0.00
22, 187500.00, 109247.39, 8224.82, -9543.28, 6688.00, -19429.74, 6638.67, -10650.96, 0.00, 0.00, 0.00
23, 187500.00, 109386.08, 8126.40, -9669.57, 6784.11, -19547.36, 6534.38, -10764.76, 0.00, 0.00, 0.00
24, 187500.00, 109390.22, 8082.35, -9702.42, 6722.04, -19581.60, 6493.63, -10800.32, 0.00, 0.00, 0.00
25, 187500.00, 109227.61, 8207.45, -9541.67, 6612.05, -19425.81, 6634.04, -10648.73, 0.00, 0.00, 0.00
26, 187500.00, 109253.78, 8249.31, -9516.01, 6681.23, -19395.70, 6674.92, -10614.69, 0.00, 0.00, 0.00
27, 187500.00, 109387.55, 8150.65, -9648.31, 6782.26, -19515.60, 6565.65, -10731.14, 0.00, 0.00, 0.00
28, 187500.00, 109441.89, 8070.61, -9724.04, 6744.17, -19592.13, 6491.82, -10804.92, 0.13, 0.95, 0.20
29, 187500.00, 109287.71, 8173.21, -9579.24, 6620.74, -19455.56, 6610.89, -10672.40, 0.00, 0.00, 0.00
30, 187500.00, 109266.52, 8234.61, -9521.22, 6650.56, -19402.59, 6669.27, -10615.69, 0.00, 0.00, 0.00
31, 187500.00, 109386.53, 8151.03, -9635.55, 6748.17, -19511.42, 6571.10, -10720.77, 0.00, 0.00, 0.00
32, 187500.00, 109474.68, 8057.65, -9739.04, 6737.67, -19617.25, 6469.87, -10824.32, 0.00, 0.00, 0.00
33, 187500.00, 109343.45, 8147.64, -9613.42, 6626.33, -19501.96, 6569.98, -10712.05, 0.00, 0.00, 0.00
34, 187500.00, 109270.63, 8231.01, -9526.63, 6623.92, -19422.53, 6652.42, -10631.96, 0.00, 0.00, 0.00
35, 187500.00, 109384.56, 8172.65, -9610.56, 6733.15, -19500.94, 6586.19, -10708.88, 0.00, 0.00, 0.00
36, 187500.00, 109495.49, 8067.06, -9731.55, 6762.94, -19621.52, 6474.03, -10827.14, 0.00, 0.00, 0.00
37, 187500.00, 109388.95, 8116.32, -9649.96, 6639.05, -19545.42, 6531.69, -10756.71, 0.00, 0.00, 0.00
38, 187500.00, 109278.62, 8227.72, -9523.47, 6603.38, -19422.28, 6649.00, -10635.54, 0.13, 0.96, 0.20
39, 187500.00, 109369.72, 8191.89, -9587.69, 6711.69, -19478.90, 6603.51, -10690.71, 0.00, 0.00, 0.00
40, 187500.00, 109497.88, 8082.50, -9719.10, 6761.22, -19607.55, 6483.48, -10816.88, 0.00, 0.00, 0.00
41, 187500.00, 109432.55, 8098.71, -9673.34, 6659.63, -19571.12, 6506.10, -10783.22, 0.00, 0.00, 0.00
42, 187500.00, 109288.31, 8221.37, -9525.73, 6594.97, -19431.20, 6636.99, -10645.17, 0.00, 0.00, 0.00
43, 187500.00, 109350.67, 8207.02, -9560.35, 6684.94, -19460.75, 6615.51, -10674.79, 0.00, 0.00, 0.00
44, 187500.00, 109494.40, 8108.18, -9683.69, 6767.19, -19580.44, 6504.20, -10793.01, 0.00, 0.00, 0.00
45, 187500.00, 109477.48, 8090.84, -9685.17, 6687.40, -19585.85, 6491.30, -10801.48, 0.00, 0.00, 0.00
46, 187500.00, 109319.90, 8224.17, -9525.13, 6603.17, -19428.34, 6635.43, -10646.78, 0.00, 0.00, 0.00
47, 187500.00, 109354.74, 8240.53, -9527.74, 6685.70, -19424.76, 6647.45, -10642.27, 0.00, 0.00, 0.00
48, 187500.00, 109485.03, 8138.58, -9656.76, 6772.91, -19540.32, 6540.12, -10755.41, 0.13, 0.96, 0.20
49, 187500.00, 109501.08, 8081.68, -9702.56, 6725.53, -19582.01, 6497.23, -10797.10, 0.00, 0.00, 0.00
50, 187500.00, 109332.98, 8198.98, -9547.37, 6616.85, -19427.85, 6634.44, -10647.92, 0.00, 0.00, 0.00
51, 187500.00, 109341.18, 8252.20, -9510.26, 6670.45, -19387.72, 6682.43, -10603.96, 0.00, 0.00, 0.00
52, 187500.00, 109465.67, 8158.50, -9638.54, 6772.22, -19505.74, 6577.98, -10716.63, 0.00, 0.00, 0.00
53, 187500.00, 109530.70, 8075.31, -9724.84, 6739.86, -19592.51, 6494.05, -10800.72, 0.00, 0.00, 0.00
54, 187500.00, 109385.09, 8176.56, -9585.48, 6622.22, -19456.72, 6610.77, -10669.20, 0.00, 0.00, 0.00
55, 187500.00, 109350.72, 8240.80, -9523.90, 6639.99, -19397.33, 6674.34, -10607.53, 0.00, 0.00, 0.00
56, 187500.00, 109473.19, 8164.35, -9631.23, 6744.06, -19497.38, 6585.78, -10704.05, 0.00, 0.00, 0.00
57, 187500.00, 109561.97, 8060.53, -9745.83, 6745.33, -19613.92, 6475.97, -10817.51, 0.12, 0.95, 0.20
58, 187500.00, 109430.70, 8126.56, -9642.01, 6617.50, -19518.82, 6552.28, -10728.64, 0.00, 0.00, 0.00
59, 187500.00, 109356.98, 8224.61, -9537.20, 6610.08, -19419.15, 6653.53, -10628.95, 0.00, 0.00, 0.00
60, 187500.00, 109454.73, 8169.36, -9625.33, 6718.78, -19500.31, 6582.92, -10707.02, 0.00, 0.00, 0.00
61, 187500.00, 109566.13, 8066.72, -9753.12, 6748.53, -19625.63, 6465.17, -10830.36, 0.00, 0.00, 0.00
62, 187500.00, 109467.24, 8105.17, -9680.56, 6631.67, -19558.58, 6516.85, -10767.82, 0.00, 0.00, 0.00
63, 187500.00, 109356.20, 8228.59, -9535.92, 6589.12, -19421.05, 6647.77, -10631.20, 0.00, 0.00, 0.00
64, 187500.00, 109433.66, 8193.88, -9591.25, 6690.37, -19472.71, 6603.58, -10681.63, 0.00, 0.00, 0.00
65, 187500.00, 109554.95, 8079.02, -9723.92, 6739.70, -19601.67, 6480.98, -10810.38, 0.00, 0.00, 0.00
66, 187500.00, 109506.96, 8089.01, -9685.73, 6651.32, -19571.99, 6500.51, -10783.64, 0.00, 0.00, 0.00
67, 187500.00, 109368.96, 8224.26, -9522.31, 6588.02, -19417.45, 6644.75, -10632.23, 0.12, 0.96, 0.20
68, 187500.00, 109425.80, 8215.74, -9549.60, 6685.36, -19440.85, 6631.23, -10652.44, 0.00, 0.00, 0.00
69, 187500.00, 109561.56, 8109.61, -9679.29, 6764.04, -19563.90, 6517.08, -10775.15, 0.00, 0.00, 0.00
70, 187500.00, 109552.65, 8085.56, -9691.13, 6688.27, -19577.91, 6494.92, -10791.33, 0.00, 0.00, 0.00
71, 187500.00, 109400.43, 8217.33, -9526.38, 6598.48, -19419.62, 6637.82, -10637.51, 0.00, 0.00, 0.00
72, 187500.00, 109422.24, 8239.66, -9519.21, 6673.27, -19412.24, 6653.18, -10627.63, 0.00, 0.00, 0.00
73, 187500.00, 109549.88, 8145.56, -9640.08, 6764.73, -19524.74, 6549.26, -10737.93, 0.00, 0.00, 0.00
74, 187500.00, 109579.53, 8083.31, -9696.21, 6719.69, -19579.05, 6491.75, -10791.18, 0.00, 0.00, 0.00
75, 187500.00, 109425.73, 8202.15, -9536.04, 6608.49, -19423.02, 6629.57, -10639.30, 0.00, 0.00, 0.00
76, 187500.00, 109413.38, 8249.72, -9497.28, 6654.58, -19384.68, 6677.02, -10597.95, 0.00, 0.00, 0.00
77, 187500.00, 109535.23, 8160.64, -9616.12, 6752.24, -19496.33, 6578.01, -10706.40, 0.13, 0.96, 0.19
78, 187500.00, 109617.45, 8080.47, -9697.42, 6743.57, -19578.09, 6500.13, -10786.59, 0.00, 0.00, 0.00
79, 187500.00, 109467.55, 8165.27, -9570.97, 6615.65, -19459.34, 6599.75, -10673.45, 0.00, 0.00, 0.00
80, 187500.00, 109416.45, 8246.23, -9494.42, 6627.36, -19384.75, 6674.63, -10595.64, 0.00, 0.00, 0.00
81, 187500.00, 109526.18, 8176.00, -9599.00, 6732.59, -19478.72, 6589.12, -10686.26, 0.00, 0.00, 0.00
82, 187500.00, 109620.88, 8068.17, -9722.49, 6742.98, -19600.60, 6473.82, -10805.39, 0.00, 0.00, 0.00
83, 187500.00, 109496.23, 8124.75, -9631.52, 6618.82, -19512.27, 6543.29, -10725.31, 0.00, 0.00, 0.00
84, 187500.00, 109410.38, 8225.38, -9523.21, 6601.43, -19406.95, 6646.87, -10620.01, 0.00, 0.00, 0.00
85, 187500.00, 109502.89, 8171.19, -9606.04, 6700.76, -19482.58, 6581.31, -10693.01, 0.00, 0.00, 0.00
86, 187500.00, 109617.82, 8057.74, -9737.69, 6734.38, -19611.64, 6460.30, -10822.02, 0.00, 0.00, 0.00
87, 187500.00, 109530.54, 8083.15, -9680.36, 6624.56, -19561.24, 6496.65, -10776.31, 0.14, 0.96, 0.19
88, 187500.00, 109411.59, 8216.30, -9528.48, 6591.80, -19415.75, 6637.15, -10631.52, 0.00, 0.00, 0.00
89, 187500.00, 109474.08, 8187.47, -9583.29, 6689.01, -19467.41, 6595.49, -10680.45, 0.00, 0.00, 0.00
90, 187500.00, 109602.73, 8080.00, -9711.79, 6748.28, -19593.92, 6478.68, -10803.00, 0.00, 0.00, 0.00
91, 187500.00, 109565.41, 8079.06, -9687.80, 6658.76, -19577.13, 6485.90, -10788.94, 0.00, 0.00, 0.00
92, 187500.00, 109413.66, 8207.14, -9531.61, 6574.34, -19427.55, 6621.99, -10644.39, 0.00, 0.00, 0.00
93, 187500.00, 109463.55, 8214.71, -9545.29, 6664.62, -19435.49, 6622.11, -10650.29, 0.00, 0.00, 0.00
94, 187500.00, 109597.48, 8107.98, -9678.01, 6750.49, -19559.65, 6507.67, -10772.07, 0.00, 0.00, 0.00
95, 187500.00, 109600.59, 8071.66, -9699.90, 6685.09, -19585.11, 6476.40, -10799.38, 0.00, 0.00, 0.00
96, 187500.00, 109439.73, 8207.29, -9533.51, 6588.49, -19420.80, 6622.06, -10639.56, 0.00, 0.00, 0.00
97, 187500.00, 109453.13, 8237.49, -9518.54, 6654.38, -19399.68, 6652.21, -10614.60, 0.13, 0.96, 0.19
98, 187500.00, 109578.93, 8142.79, -9642.43, 6753.20, -19513.94, 6552.93, -10722.67, 0.00, 0.00, 0.00
99, 187500.00, 109621.80, 8076.22, -9705.98, 6719.67, -19580.28, 6488.17, -10786.64, 0.00, 0.00, 0.00
100, 187500.00, 109463.13, 8186.35, -9554.41, 6601.70, -19436.67, 6611.47, -10650.38, 0.00, 0.00, 0.00
101, 187500.00, 109443.84, 8243.57, -9501.57, 6640.28, -19385.27, 6669.85, -10595.89, 0.00, 0.00, 0.00
102, 187500.00, 109555.02, 8151.86, -9623.99, 6739.79, -19498.21, 6566.85, -10705.68, 0.00, 0.00, 0.00
103, 187500.00, 109622.09, 8044.79, -9736.89, 6715.80, -19611.80, 6456.59, -10815.61, 0.00, 0.00, 0.00
104, 187500.00, 109497.15, 8146.56, -9595.45, 6601.88, -19480.64, 6571.59, -10687.80, 0.00, 0.00, 0.00
105, 187500.00, 109434.52, 8237.33, -9505.86, 6614.46, -19397.09, 6661.87, -10599.84, 0.00, 0.00, 0.00
106, 187500.00, 109532.69, 8172.49, -9606.80, 6724.37, -19492.67, 6581.76, -10690.17, 0.00, 0.00, 0.00
107, 187500.00, 109632.27, 8064.91, -9729.20, 6744.57, -19615.46, 6466.65, -10810.29, 0.13, 0.96, 0.19
108, 187500.00, 109521.33, 8123.20, -9637.40, 6625.35, -19530.57, 6535.45, -10731.05, 0.00, 0.00, 0.00
109, 187500.00, 109423.54, 8234.38, -9511.87, 6606.13, -19408.60, 6656.10, -10608.85, 0.00, 0.00, 0.00
110, 187500.00, 109511.43, 8192.25, -9581.63, 6714.75, -19472.10, 6600.98, -10671.62, 0.00, 0.00, 0.00
111, 187500.00, 109622.59, 8077.23, -9718.47, 6759.93, -19605.65, 6473.74, -10804.41, 0.00, 0.00, 0.00
112, 187500.00, 109547.70, 8090.48, -9670.73, 6664.69, -19562.83, 6502.37, -10763.91, 0.00, 0.00, 0.00
113, 187500.00, 109415.63, 8214.33, -9524.97, 6575.23, -19424.16, 6628.39, -10628.05, 0.00, 0.00, 0.00
114, 187500.00, 109494.95, 8212.25, -9549.65, 6678.10, -19444.65, 6616.92, -10646.83, 0.00, 0.00, 0.00
115, 187500.00, 109619.27, 8098.01, -9687.78, 6747.86, -19574.45, 6494.50, -10775.57, 0.00, 0.00, 0.00
116, 187500.00, 109579.40, 8077.12, -9687.49, 6662.36, -19575.46, 6482.52, -10780.16, 0.00, 0.00, 0.00
117, 187500.00, 109425.22, 8211.32, -9520.43, 6580.17, -19416.04, 6631.56, -10622.73, 0.13, 0.97, 0.19
118, 187500.00, 109463.41, 8225.89, -9525.55, 6666.88, -19419.15, 6641.89, -10622.20, 0.00, 0.00, 0.00
119, 187500.00, 109581.73, 8114.60, -9665.43, 6752.10, -19552.05, 6521.48, -10751.48, 0.00, 0.00, 0.00
120, 187500.00, 109604.21, 8075.60, -9693.10, 6703.04, -19580.26, 6491.80, -10777.88, 0.00, 0.00, 0.00
121, 187500.00, 109436.93, 8197.66, -9534.65, 6597.30, -19424.36, 6628.25, -10626.56, 0.00, 0.00, 0.00
122, 187500.00, 109441.80, 8239.90, -9501.48, 6653.42, -19389.15, 6667.39, -10589.81, 0.00, 0.00, 0.00
123, 187500.00, 109572.02, 8146.67, -9617.22, 6753.74, -19493.83, 6566.29, -10696.25, 0.00, 0.00, 0.00
124, 187500.00, 109626.23, 8068.04, -9688.77, 6726.53, -19564.26, 6491.84, -10769.27, 0.00, 0.00, 0.00
125, 187500.00, 109468.85, 8173.25, -9542.61, 6603.64, -19422.30, 6609.34, -10632.17, 0.00, 0.00, 0.00
126, 187500.00, 109441.13, 8244.46, -9476.11, 6630.82, -19358.26, 6678.92, -10564.37, 0.00, 0.00, 0.00
127, 187500.00, 109553.14, 8157.67, -9595.87, 6728.84, -19473.08, 6580.08, -10672.09, 0.13, 0.96, 0.19
128, 187500.00, 109635.39, 8053.47, -9714.74, 6724.83, -19594.48, 6471.92, -10785.28, 0.00, 0.00, 0.00
129, 187500.00, 109505.59, 8129.84, -9600.83, 6608.16, -19488.62, 6562.96, -10682.86, 0.00, 0.00, 0.00
130, 187500.00, 109439.01, 8224.50, -9500.97, 6603.33, -19394.18, 6661.38, -10585.63, 0.00, 0.00, 0.00
131, 187500.00, 109543.39, 8162.43, -9592.97, 6703.58, -19479.39, 6585.27, -10669.65, 0.00, 0.00, 0.00
132, 187500.00, 109650.21, 8054.72, -9720.66, 6728.79, -19607.69, 6464.82, -10796.92, 0.00, 0.00, 0.00
133, 187500.00, 109552.83, 8102.71, -9641.31, 6618.49, -19538.02, 6521.88, -10730.42, 0.00, 0.00, 0.00
134, 187500.00, 109452.78, 8219.09, -9512.01, 6591.48, -19416.29, 6642.74, -10609.34, 0.00, 0.00, 0.00
135, 187500.00, 109537.94, 8177.52, -9582.08, 6692.76, -19480.30, 6592.56, -10668.84, 0.00, 0.00, 0.00
136, 187500.00, 109668.41, 8067.82, -9714.02, 6736.82, -19607.49, 6475.57, -10792.63, 0.13, 0.96, 0.19
137, 187500.00, 109610.85, 8079.06, -9675.87, 6639.90, -19571.88, 6499.10, -10760.62, 0.00, 0.00, 0.00
138, 187500.00, 109466.15, 8197.12, -9530.40, 6574.63, -19429.99, 6631.34, -10621.41, 0.00, 0.00, 0.00
139, 187500.00, 109530.34, 8186.13, -9563.53, 6663.23, -19458.73, 6611.04, -10647.16, 0.00, 0.00, 0.00
140, 187500.00, 109678.06, 8097.99, -9677.19, 6745.04, -19566.98, 6511.55, -10754.36, 0.00, 0.00, 0.00
141, 187500.00, 109654.48, 8070.34, -9687.49, 6669.04, -19577.74, 6491.73, -10767.95, 0.00, 0.00, 0.00
142, 187500.00, 109494.48, 8194.04, -9532.33, 6575.35, -19425.12, 6628.88, -10621.35, 0.00, 0.00, 0.00
143, 187500.00, 109529.60, 8215.47, -9527.79, 6656.35, -19414.10, 6647.48, -10608.43, 0.00, 0.00, 0.00
144, 187500.00, 109658.57, 8113.97, -9660.36, 6746.69, -19537.90, 6533.82, -10729.62, 0.00, 0.00, 0.00
145, 187500.00, 109692.92, 8064.91, -9702.80, 6700.29, -19583.68, 6485.81, -10776.76, 0.00, 0.00, 0.00
146, 187500.00, 109527.21, 8183.55, -9547.91, 6589.58, -19432.99, 6618.49, -10630.71, 0.13, 0.96, 0.20
147, 187500.00, 109524.80, 8235.08, -9507.40, 6641.84, -19390.76, 6669.49, -10583.26, 0.00, 0.00, 0.00
148, 187500.00, 109648.67, 8148.80, -9621.89, 6750.36, -19495.77, 6573.04, -10686.26, 0.00, 0.00, 0.00
149, 187500.00, 109713.06, 8065.25, -9702.20, 6728.01, -19577.94, 6493.02, -10766.30, 0.00, 0.00, 0.00
150, 187500.00, 109563.09, 8158.79, -9567.44, 6607.58, -19448.12, 6603.78, -10641.58, 0.00, 0.00, 0.00
151, 187500.00, 109519.77, 8235.08, -9492.61, 6631.70, -19374.78, 6682.39, -10566.47, 0.00, 0.00, 0.00
152, 187500.00, 109634.21, 8165.49, -9596.48, 6741.29, -19474.05, 6596.74, -10660.80, 0.00, 0.00, 0.00
153, 187500.00, 109725.80, 8059.79, -9714.11, 6744.59, -19591.88, 6485.09, -10775.53, 0.00, 0.00, 0.00
154, 187500.00, 109604.03, 8133.89, -9609.33, 6618.55, -19496.02, 6563.32, -10682.52, 0.00, 0.00, 0.00
155, 187500.00, 109523.95, 8236.75, -9505.24, 6605.57, -19400.04, 6662.56, -10584.96, 0.00, 0.00, 0.00
156, 187500.00, 109620.02, 8180.58, -9597.64, 6708.05, -19488.15, 6589.88, -10669.56, 0.11, 0.96, 0.20
157, 187500.00, 109738.99, 8075.69, -9727.12, 6738.00, -19615.55, 6473.09, -10794.24, 0.00, 0.00, 0.00
158, 187500.00, 109654.39, 8119.32, -9655.46, 6636.21, -19549.37, 6526.28, -10731.90, 0.00, 0.00, 0.00
159, 187500.00, 109537.42, 8240.39, -9513.06, 6589.36, -19413.88, 6655.16, -10595.75, 0.00, 0.00, 0.00
160, 187500.00, 109611.30, 8203.92, -9572.96, 6685.97, -19471.14, 6607.53, -10651.17, 0.00, 0.00, 0.00
161, 187500.00, 109740.49, 8093.19, -9703.32, 6742.92, -19597.36, 6489.09, -10776.02, 0.00, 0.00, 0.00
162, 187500.00, 109682.82, 8084.98, -9686.06, 6645.84, -19584.96, 6489.38, -10769.20, 0.00, 0.00, 0.00
163, 187500.00, 109533.87, 8210.94, -9530.54, 6568.71, -19435.53, 6627.02, -10624.25, 0.00, 0.00, 0.00
164, 187500.00, 109580.30, 8200.88, -9560.73, 6674.97, -19459.07, 6614.55, -10645.17, 0.00, 0.00, 0.00
165, 187500.00, 109715.61, 8101.86, -9688.54, 6740.41, -19579.97, 6505.68, -10761.45, 0.00, 0.00, 0.00
166, 187500.00, 109704.02, 8063.57, -9713.82, 6668.91, -19607.53, 6476.46, -10789.37, 0.10, 0.96, 0.21
167, 187500.00, 109541.67, 8194.10, -9547.08, 6586.97, -19445.93, 6628.05, -10631.36, 0.00, 0.00, 0.00
168, 187500.00, 109571.66, 8233.22, -9524.35, 6661.98, -19425.77, 6662.12, -10604.47, 0.00, 0.00, 0.00
169, 187500.00, 109701.17, 8139.19, -9645.87, 6753.33, -19542.93, 6554.92, -10719.74, 0.00, 0.00, 0.00
170, 187500.00, 109736.31, 8073.56, -9699.90, 6713.82, -19599.82, 6493.81, -10777.88, 0.00, 0.00, 0.00
171, 187500.00, 109571.51, 8181.19, -9545.49, 6592.04, -19447.56, 6622.24, -10632.37, 0.00, 0.00, 0.00
172, 187500.00, 109563.17, 8243.21, -9484.38, 6647.94, -19382.20, 6688.18, -10565.27, 0.00, 0.00, 0.00
173, 187500.00, 109678.09, 8154.77, -9601.50, 6755.86, -19484.51, 6592.38, -10665.00, 0.00, 0.00, 0.00
174, 187500.00, 109752.80, 8066.65, -9691.65, 6743.45, -19571.28, 6504.36, -10751.26, 0.00, 0.00, 0.00
175, 187500.00, 109596.16, 8148.17, -9568.31, 6610.51, -19453.24, 6598.23, -10641.38, 0.00, 0.00, 0.00
176, 187500.00, 109539.75, 8231.48, -9484.20, 6616.76, -19373.62, 6677.52, -10560.08, 0.11, 0.96, 0.20
177, 187500.00, 109650.55, 8166.41, -9582.30, 6726.60, -19467.68, 6595.96, -10649.64, 0.00, 0.00, 0.00
178, 187500.00, 109750.33, 8058.05, -9705.44, 6735.94, -19594.90, 6477.07, -10773.56, 0.00, 0.00, 0.00
179, 187500.00, 109645.77, 8122.04, -9604.59, 6617.64, -19504.82, 6551.59, -10686.53, 0.00, 0.00, 0.00
180, 187500.00, 109550.03, 8220.28, -9494.28, 6587.37, -19401.36, 6650.74, -10583.17, 0.00, 0.00, 0.00
181, 187500.00, 109645.77, 8172.65, -9569.97, 6692.22, -19473.22, 6589.70, -10652.86, 0.00, 0.00, 0.00
182, 187500.00, 109767.73, 8054.32, -9706.40, 6733.26, -19610.06, 6465.22, -10785.68, 0.00, 0.00, 0.00
183, 187500.00, 109679.65, 8068.62, -9661.97, 6622.58, -19570.40, 6489.54, -10749.96, 0.00, 0.00, 0.00
184, 187500.00, 109558.37, 8192.76, -9515.92, 6557.96, -19431.82, 6616.61, -10614.62, 0.00, 0.00, 0.00
185, 187500.00, 109636.98, 8173.99, -9558.03, 6667.08, -19469.67, 6590.79, -10649.60, 0.00, 0.00, 0.00
186, 187500.00, 109763.55, 8061.78, -9694.38, 6745.29, -19597.99, 6469.51, -10776.69, 0.13, 0.95, 0.19
187, 187500.00, 109716.88, 8037.71, -9697.10, 6626.53, -19603.91, 6449.80, -10788.11, 0.00, 0.00, 0.00
188, 187500.00, 109578.89, 8172.74, -9529.60, 6544.88, -19442.08, 6596.07, -10632.32, 0.00, 0.00, 0.00
189, 187500.00, 109620.73, 8178.73, -9543.64, 6634.02, -19453.37, 6597.54, -10640.30, 0.00, 0.00, 0.00
190, 187500.00, 109743.62, 8072.02, -9679.87, 6721.93, -19583.90, 6479.06, -10767.42, 0.00, 0.00, 0.00
191, 187500.00, 109749.34, 8027.70, -9708.14, 6659.88, -19618.57, 6437.10, -10803.89, 0.00, 0.00, 0.00
192, 187500.00, 109588.99, 8157.02, -9537.20, 6553.29, -19456.72, 6577.07, -10649.31, 0.00, 0.00, 0.00
193, 187500.00, 109593.37, 8191.74, -9514.65, 6617.99, -19432.47, 6604.81, -10624.39, 0.00, 0.00, 0.00
194, 187500.00, 109726.32, 8106.66, -9628.68, 6716.68, -19539.31, 6505.14, -10730.09, 0.00, 0.00, 0.00
195, 187500.00, 109765.86, 8029.37, -9701.84, 6679.68, -19615.49, 6427.74, -10804.99, 0.00, 0.00, 0.00
196, 187500.00, 109609.58, 8141.27, -9545.89, 6558.63, -19461.42, 6555.07, -10659.73, 0.16, 0.96, 0.19
197, 187500.00, 109589.88, 8211.65, -9477.97, 6600.83, -19393.07, 6626.04, -10587.04, 0.00, 0.00, 0.00
198, 187500.00, 109713.49, 8129.73, -9588.27, 6709.39, -19490.74, 6537.57, -10679.19, 0.00, 0.00, 0.00
199, 187500.00, 109796.19, 8025.06, -9696.95, 6705.25, -19593.49, 6433.75, -10779.37, 0.00, 0.00, 0.00
200, 187500.00, 109656.63, 8102.98, -9579.09, 6577.38, -19476.37, 6524.76, -10666.97, 0.00, 0.00, 0.00
201, 187500.00, 109600.97, 8194.35, -9484.72, 6576.87, -19384.37, 6612.67, -10573.13, 0.00, 0.00, 0.00
202, 187500.00, 109719.48, 8133.82, -9576.11, 6702.55, -19469.96, 6535.99, -10654.61, 0.00, 0.00, 0.00
203, 187500.00, 109829.67, 8025.01, -9706.22, 6708.92, -19600.20, 6410.73, -10781.92, 0.00, 0.00, 0.00
204, 187500.00, 109731.82, 8079.31, -9622.43, 6579.97, -19524.90, 6464.86, -10711.96, 0.00, 0.00, 0.00
205, 187500.00, 109638.55, 8197.86, -9495.65, 6564.84, -19402.43, 6587.08, -10587.80, 0.00, 0.00, 0.00
206, 187500.00, 109730.68, 8156.33, -9572.40, 6662.09, -19472.97, 6524.23, -10657.54, 0.16, 0.97, 0.19
207, 187500.00, 109857.14, 8042.14, -9711.54, 6708.03, -19609.95, 6394.61, -10792.79, 0.00, 0.00, 0.00
208, 187500.00, 109795.72, 8061.98, -9665.34, 6607.89, -19570.81, 6422.68, -10757.51, 0.00, 0.00, 0.00
209, 187500.00, 109664.02, 8187.42, -9514.22, 6544.79, -19425.36, 6559.72, -10613.95, 0.00, 0.00, 0.00
210, 187500.00, 109727.64, 8170.14, -9556.31, 6641.62, -19460.97, 6536.28, -10646.74, 0.00, 0.00, 0.00
211, 187500.00, 109866.24, 8065.63, -9691.58, 6714.64, -19584.96, 6421.63, -10771.33, 0.00, 0.00, 0.00
212, 187500.00, 109839.38, 8037.87, -9700.05, 6633.82, -19592.85, 6405.14, -10781.79, 0.00, 0.00, 0.00
213, 187500.00, 109691.83, 8173.83, -9533.58, 6545.40, -19430.57, 6550.16, -10624.92, 0.00, 0.00, 0.00
214, 187500.00, 109727.73, 8190.26, -9543.68, 6618.55, -19434.21, 6555.99, -10626.29, 0.00, 0.00, 0.00
215, 187500.00, 109864.70, 8095.67, -9671.85, 6710.33, -19553.62, 6448.30, -10744.86, 0.00, 0.00, 0.00
216, 187500.00, 109883.54, 8039.43, -9719.14, 6655.68, -19604.36, 6397.29, -10796.25, 0.16, 0.96, 0.19
217, 187500.00, 109717.53, 8157.18, -9558.52, 6553.38, -19450.58, 6535.58, -10646.22, 0.00, 0.00, 0.00
218, 187500.00, 109713.04, 8201.10, -9526.56, 6611.15, -19417.54, 6579.21, -10609.52, 0.00, 0.00, 0.00
219, 187500.00, 109831.87, 8110.58, -9650.66, 6697.95, -19530.57, 6478.61, -10719.70, 0.00, 0.00, 0.00
220, 187500.00, 109890.98, 8035.41, -9726.63, 6683.35, -19603.42, 6409.43, -10790.80, 0.00, 0.00, 0.00
221, 187500.00, 109725.13, 8132.10, -9584.34, 6562.02, -19461.28, 6528.52, -10656.80, 0.00, 0.00, 0.00
222, 187500.00, 109686.22, 8205.75, -9507.83, 6595.02, -19383.79, 6615.31, -10577.22, 0.00, 0.00, 0.00
223, 187500.00, 109805.65, 8130.40, -9608.37, 6713.57, -19474.43, 6538.60, -10666.57, 0.00, 0.00, 0.00
224, 187500.00, 109902.61, 8040.21, -9703.34, 6727.67, -19566.92, 6445.59, -10760.93, 0.00, 0.00, 0.00
225, 187500.00, 109760.95, 8115.65, -9583.80, 6595.75, -19455.27, 6530.08, -10658.81, 0.15, 0.96, 0.19
226, 187500.00, 109687.83, 8216.97, -9469.12, 6585.07, -19342.71, 6633.19, -10552.01, 0.00, 0.00, 0.00
227, 187500.00, 109793.91, 8154.81, -9556.49, 6691.33, -19422.12, 6560.19, -10631.70, 0.00, 0.00, 0.00
228, 187500.00, 109910.05, 8042.63, -9684.34, 6719.47, -19546.02, 6445.84, -10752.46, 0.00, 0.00, 0.00
229, 187500.00, 109814.97, 8085.92, -9607.34, 6602.24, -19472.71, 6502.66, -10683.51, 0.00, 0.00, 0.00
230, 187500.00, 109699.41, 8200.12, -9480.69, 6563.12, -19349.03, 6622.33, -10560.68, 0.00, 0.00, 0.00
231, 187500.00, 109781.23, 8156.64, -9554.14, 6658.58, -19414.37, 6570.90, -10623.72, 0.00, 0.00, 0.00
232, 187500.00, 109905.16, 8035.30, -9704.68, 6707.20, -19559.81, 6439.98, -10765.67, 0.00, 0.00, 0.00
233, 187500.00, 109854.66, 8046.02, -9671.42, 6611.33, -19533.10, 6459.65, -10738.85, 0.00, 0.00, 0.00
234, 187500.00, 109708.93, 8168.80, -9523.76, 6535.83, -19393.22, 6594.23, -10600.40, 0.00, 0.00, 0.00
235, 187500.00, 109779.56, 8163.39, -9551.28, 6641.26, -19419.29, 6584.11, -10623.31, 0.16, 0.96, 0.19
236, 187500.00, 109910.32, 8049.60, -9697.57, 6696.34, -19559.90, 6458.29, -10759.15, 0.00, 0.00, 0.00
237, 187500.00, 109900.35, 8015.58, -9714.38, 6622.46, -19582.34, 6434.58, -10782.24, 0.00, 0.00, 0.00
238, 187500.00, 109736.65, 8143.63, -9548.53, 6524.76, -19427.33, 6573.07, -10632.05, 0.00, 0.00, 0.00
239, 187500.00, 109765.37, 8171.53, -9541.02, 6600.67, -19417.76, 6592.96, -10620.39, 0.00, 0.00, 0.00
240, 187500.00, 109903.10, 8078.95, -9666.68, 6701.68, -19536.52, 6489.52, -10735.68, 0.00, 0.00, 0.00
241, 187500.00, 109929.77, 8011.56, -9727.90, 6655.14, -19601.50, 6427.89, -10797.50, 0.00, 0.00, 0.00
242, 187500.00, 109759.91, 8127.88, -9569.92, 6540.77, -19450.49, 6559.66, -10653.20, 0.00, 0.00, 0.00
243, 187500.00, 109761.16, 8192.92, -9517.15, 6604.92, -19399.55, 6619.22, -10600.83, 0.00, 0.00, 0.00
244, 187500.00, 109887.03, 8105.35, -9639.21, 6702.37, -19511.37, 6520.72, -10709.32, 0.00, 0.00, 0.00
245, 187500.00, 109954.71, 8017.53, -9727.75, 6681.25, -19598.17, 6438.04, -10792.47, 0.16, 0.97, 0.19
246, 187500.00, 109791.12, 8107.33, -9592.47, 6554.43, -19468.75, 6547.25, -10670.03, 0.00, 0.00, 0.00
247, 187500.00, 109743.51, 8197.14, -9500.47, 6579.64, -19376.08, 6640.35, -10580.24, 0.00, 0.00, 0.00
248, 187500.00, 109852.20, 8126.11, -9601.15, 6692.69, -19467.86, 6558.18, -10671.97, 0.00, 0.00, 0.00
249, 187500.00, 109945.84, 8023.25, -9712.39, 6703.80, -19576.24, 6456.44, -10777.14, 0.00, 0.00, 0.00
250, 187500.00, 109811.16, 8090.35, -9600.68, 6583.24, -19467.99, 6539.87, -10677.36, 0.00, 0.00, 0.00
251, 187500.00, 109722.95, 8204.41, -9476.67, 6572.98, -19344.41, 6660.28, -10552.62, 0.00, 0.00, 0.00
252, 187500.00, 109815.55, 8151.44, -9559.42, 6689.50, -19417.05, 6599.13, -10622.98, 0.00, 0.00, 0.00
253, 187500.00, 109938.15, 8040.32, -9684.25, 6740.79, -19540.79, 6480.44, -10746.52, 0.00, 0.00, 0.00
254, 187500.00, 109859.00, 8080.07, -9609.71, 6609.41, -19479.08, 6527.31, -10688.80, 0.00, 0.00, 0.00
255, 187500.00, 109731.70, 8192.83, -9472.27, 6554.60, -19350.17, 6649.96, -10561.15, 0.16, 0.96, 0.20
0, 187500.00, 109808.66, 8160.64, -9529.55, 6660.24, -19398.21, 6610.93, -10609.72, 0.00, 0.00, 0.00
1, 187500.00, 109938.23, 8044.88, -9675.47, 6713.01, -19539.07, 6482.81, -10746.92, 0.00, 0.00, 0.00
2, 187500.00, 109901.40, 8043.03, -9658.72, 6621.41, -19524.11, 6491.86, -10733.06, 0.00, 0.00, 0.00
3, 187500.00, 109748.00, 8167.73, -9509.48, 6544.75, -19377.82, 6629.55, -10589.09, 0.00, 0.00, 0.00
4, 187500.00, 109795.79, 8164.91, -9538.32, 6623.43, -19402.83, 6616.72, -10610.80, 0.00, 0.00, 0.00
5, 187500.00, 109944.54, 8068.89, -9665.61, 6709.84, -19526.30, 6506.32, -10730.20, 0.00, 0.00, 0.00
6, 187500.00, 109942.52, 8026.62, -9695.00, 6641.80, -19563.12, 6465.04, -10767.68, 0.00, 0.00, 0.00
7, 187500.00, 109771.72, 8151.77, -9537.22, 6538.24, -19414.46, 6600.47, -10622.31, 0.00, 0.00, 0.00
8, 187500.00, 109793.02, 8185.57, -9519.85, 6607.80, -19396.87, 6627.83, -10602.68, 0.00, 0.00, 0.00
9, 187500.00, 109929.88, 8086.57, -9649.14, 6706.51, -19519.49, 6517.32, -10722.74, 0.16, 0.95, 0.20
10, 187500.00, 109974.31, 8017.15, -9716.12, 6672.35, -19588.80, 6452.77, -10789.81, 0.00, 0.00, 0.00
11, 187500.00, 109805.51, 8128.01, -9567.49, 6565.74, -19442.71, 6578.77, -10651.59, 0.00, 0.00, 0.00
12, 187500.00, 109787.61, 8192.88, -9513.37, 6589.88, -19390.52, 6635.25, -10597.50, 0.00, 0.00, 0.00
13, 187500.00, 109916.69, 8110.40, -9628.59, 6690.52, -19497.63, 6546.09, -10699.89, 0.00, 0.00, 0.00
14, 187500.00, 109993.84, 8007.71, -9737.74, 6672.46, -19606.50, 6443.69, -10807.83, 0.00, 0.00, 0.00
15, 187500.00, 109859.34, 8103.71, -9600.74, 6558.02, -19473.20, 6556.24, -10681.88, 0.00, 0.00, 0.00
16, 187500.00, 109811.03, 8202.49, -9500.92, 6581.09, -19376.39, 6659.43, -10581.25, 0.00, 0.00, 0.00
17, 187500.00, 109929.88, 8139.63, -9593.50, 6695.76, -19460.08, 6587.80, -10661.58, 0.00, 0.00, 0.00
18, 187500.00, 110037.26, 8028.10, -9715.61, 6720.34, -19576.28, 6479.28, -10776.38, 0.00, 0.00, 0.00
19, 187500.00, 109917.00, 8082.03, -9625.31, 6593.50, -19487.46, 6548.19, -10693.97, 0.15, 0.95, 0.20
20, 187500.00, 109817.16, 8192.85, -9502.60, 6569.69, -19362.31, 6667.17, -10568.66, 0.00, 0.00, 0.00
21, 187500.00, 109910.92, 8149.87, -9574.24, 6681.00, -19418.95, 6615.96, -10625.55, 0.00, 0.00, 0.00
22, 187500.00, 110038.84, 8037.40, -9703.09, 6732.50, -19537.48, 6498.46, -10745.00, 0.00, 0.00, 0.00
23, 187500.00, 109965.80, 8058.83, -9643.88, 6619.33, -19482.81, 6531.56, -10697.99, 0.00, 0.00, 0.00
24, 187500.00, 109830.12, 8181.70, -9495.56, 6556.08, -19345.77, 6653.51, -10565.83, 0.00, 0.00, 0.00
25, 187500.00, 109892.95, 8154.07, -9546.85, 6644.79, -19397.65, 6608.85, -10617.39, 0.00, 0.00, 0.00
