%OpenBCI Raw EEG Data
%
%Sample Rate = 250.0 Hz
%First Column = SampleIndex
%Other Columns = EEG data in microvolts followed by Accel Data (in G) interleaved with Aux Data
0, -187500.02, -187500.02, -108557.50, -187500.02, -187500.02, -187500.02, -17861.93, -42004.49, -0.01, 0.46, 0.19
1, -187500.02, -187500.02, -109231.27, -187500.02, -187500.02, -187500.02, -17781.35, -42108.38, 0.00, 0.00, 0.00
2, -187500.02, -187500.02, -107014.27, -187500.02, -187500.02, -187500.02, -16125.51, -42662.06, 0.00, 0.00, 0.00
3, -187500.02, -187500.02, -105815.68, -187500.02, -187500.02, -187500.02, -16007.02, -42819.23, 0.00, 0.00, 0.00
4, -187500.02, -187500.02, -108043.52, -187500.02, -187500.02, -187500.02, -17920.49, -42388.88, 0.00, 0.00, 0.00
5, -187500.02, -187500.02, -109224.41, -187500.02, -187500.02, -187500.02, -18241.53, -42412.30, 0.00, 0.00, 0.00
6, -187500.02, -187500.02, -107352.67, -187500.02, -187500.02, -187500.02, -16706.90, -42910.36, 0.00, 0.00, 0.00
7, -187500.02, -187500.02, -105548.45, -187500.02, -187500.02, -187500.02, -16092.16, -43216.92, -0.03, 0.92, 0.38
8, -187500.02, -187500.02, -107362.47, -187500.02, -187500.02, -187500.02, -17885.55, -42781.55, 0.00, 0.00, 0.00
9, -187500.02, -187500.02, -109010.77, -187500.02, -187500.02, -187500.02, -18609.95, -42597.26, 0.00, 0.00, 0.00
10, -187500.02, -187500.02, -107587.15, -187500.02, -187500.02, -187500.02, -17232.57, -42966.31, 0.00, 0.00, 0.00
11, -187500.02, -187500.02, -105372.47, -187500.02, -187500.02, -187500.02, -16149.40, -43294.25, 0.00, 0.00, 0.00
12, -187500.02, -187500.02, -106638.85, -187500.02, -187500.02, -187500.02, -17628.87, -42789.82, 0.00, 0.00, 0.00
13, -187500.02, -187500.02, -108666.09, -187500.02, -187500.02, -187500.02, -18646.12, -42368.33, 0.00, 0.00, 0.00
14, -187500.02, -187500.02, -107715.58, -187500.02, -187500.02, -187500.02, -17408.50, -42578.71, 0.00, 0.00, 0.00
15, -187500.02, -187500.02, -105279.84, -187500.02, -187500.02, -187500.02, -15950.56, -42918.25, 0.00, 0.00, 0.00
16, -187500.02, -187500.02, -105900.69, -187500.02, -187500.02, -187500.02, -17045.93, -42616.59, 0.00, 0.00, 0.00
17, -187500.02, -187500.02, -108202.98, -187500.02, -187500.02, -187500.02, -18443.03, -42215.76, -0.02, 0.92, 0.38
18, -187500.02, -187500.02, -107844.66, -187500.02, -187500.02, -187500.02, -17586.29, -42394.17, 0.00, 0.00, 0.00
19, -187500.02, -187500.02, -105313.44, -187500.02, -187500.02, -187500.02, -15924.88, -42824.51, 0.00, 0.00, 0.00
20, -187500.02, -187500.02, -105240.28, -187500.02, -187500.02, -187500.02, -16598.99, -42673.30, 0.00, 0.00, 0.00
21, -187500.02, -187500.02, -107676.62, -187500.02, -187500.02, -187500.02, -18262.43, -42137.86, 0.00, 0.00, 0.00
22, -187500.02, -187500.02, -107923.30, -187500.02, -187500.02, -187500.02, -17843.55, -42421.89, 0.00, 0.00, 0.00
23, -187500.02, -187500.02, -105574.88, -187500.02, -187500.02, -187500.02, -16298.98, -43233.50, 0.00, 0.00, 0.00
24, -187500.02, -187500.02, -104900.69, -187500.02, -187500.02, -187500.02, -16769.13, -43758.43, 0.00, 0.00, 0.00
25, -187500.02, -187500.02, -107381.91, -187500.02, -187500.02, -187500.02, -19075.34, -44036.54, 0.00, 0.00, 0.00
26, -187500.02, -187500.02, -108261.09, -187500.02, -187500.02, -187500.02, -19502.05, -44514.57, -0.02, 0.92, 0.39
27, -187500.02, -187500.02, -106235.58, -187500.02, -187500.02, -187500.02, -18257.84, -45377.32, 0.00, 0.00, 0.00
28, -187500.02, -187500.02, -104975.79, -187500.02, -187500.02, -187500.02, -18375.37, -45968.62, 0.00, 0.00, 0.00
29, -187500.02, -187500.02, -107141.02, -187500.02, -187500.02, -187500.02, -20564.01, -45821.14, 0.00, 0.00, 0.00
30, -187500.02, -187500.02, -108471.05, -187500.02, -187500.02, -187500.02, -21176.51, -45757.39, 0.00, 0.00, 0.00
31, -187500.02, -187500.02, -106749.27, -187500.02, -187500.02, -187500.02, -19679.68, -45842.78, 0.00, 0.00, 0.00
32, -187500.02, -187500.02, -104782.07, -187500.02, -187500.02, -187500.02, -18643.19, -45429.32, 0.00, 0.00, 0.00
33, -187500.02, -187500.02, -106340.34, -187500.02, -187500.02, -187500.02, -19898.64, -44260.43, 0.00, 0.00, 0.00
34, -187500.02, -187500.02, -107970.74, -187500.02, -187500.02, -187500.02, -20263.02, -43635.45, 0.00, 0.00, 0.00
35, -187500.02, -187500.02, -106576.96, -187500.02, -187500.02, -187500.02, -18527.56, -43509.99, 0.00, 0.00, 0.00
36, -187500.02, -187500.02, -104182.46, -187500.02, -187500.02, -187500.02, -16911.55, -43313.93, -0.02, 0.92, 0.38
37, -187500.02, -187500.02, -105180.29, -187500.02, -187500.02, -187500.02, -17892.53, -42479.54, 0.00, 0.00, 0.00
38, -187500.02, -187500.02, -107188.86, -187500.02, -187500.02, -187500.02, -18655.64, -41782.92, 0.00, 0.00, 0.00
39, -187500.02, -187500.02, -106336.09, -187500.02, -187500.02, -187500.02, -17227.29, -41701.67, 0.00, 0.00, 0.00
40, -187500.02, -187500.02, -103759.88, -187500.02, -187500.02, -187500.02, -15396.02, -41779.07, 0.00, 0.00, 0.00
41, -187500.02, -187500.02, -104170.50, -187500.02, -187500.02, -187500.02, -16159.64, -41281.35, 0.00, 0.00, 0.00
42, -187500.02, -187500.02, -106468.10, -187500.02, -187500.02, -187500.02, -17399.83, -40683.66, 0.00, 0.00, 0.00
43, -187500.02, -187500.02, -106163.27, -187500.02, -187500.02, -187500.02, -16421.40, -40717.41, 0.00, 0.00, 0.00
44, -187500.02, -187500.02, -103567.50, -187500.02, -187500.02, -187500.02, -14562.03, -41060.11, 0.00, 0.00, 0.00
45, -187500.02, -187500.02, -103251.71, -187500.02, -187500.02, -187500.02, -14975.38, -40809.99, 0.00, 0.00, 0.00
46, -187500.02, -187500.02, -105655.69, -187500.02, -187500.02, -187500.02, -16580.48, -40194.83, -0.02, 0.91, 0.39
47, -187500.02, -187500.02, -105923.66, -187500.02, -187500.02, -187500.02, -16053.02, -40202.54, 0.00, 0.00, 0.00
48, -187500.02, -187500.02, -103452.19, -187500.02, -187500.02, -187500.02, -14183.41, -40595.39, 0.00, 0.00, 0.00
49, -187500.02, -187500.02, -102483.55, -187500.02, -187500.02, -187500.02, -14163.14, -40511.39, 0.00, 0.00, 0.00
50, -187500.02, -187500.02, -104820.89, -187500.02, -187500.02, -187500.02, -15946.25, -39880.07, 0.00, 0.00, 0.00
51, -187500.02, -187500.02, -105687.94, -187500.02, -187500.02, -187500.02, -15880.85, -39815.77, 0.00, 0.00, 0.00
52, -187500.02, -187500.02, -103472.08, -187500.02, -187500.02, -187500.02, -14080.59, -40255.85, 0.00, 0.00, 0.00
53, -187500.02, -187500.02, -101880.32, -187500.02, -187500.02, -187500.02, -13607.92, -40363.27, 0.00, 0.00, 0.00
54, -187500.02, -187500.02, -103933.51, -187500.02, -187500.02, -187500.02, -15421.90, -39798.20, 0.00, 0.00, 0.00
55, -187500.02, -187500.02, -105364.20, -187500.02, -187500.02, -187500.02, -15846.36, -39600.94, 0.00, 0.00, 0.00
56, -187500.02, -187500.02, -103571.05, -187500.02, -187500.02, -187500.02, -14194.07, -39978.39, -0.02, 0.92, 0.39
57, -187500.02, -187500.02, -101445.91, -187500.02, -187500.02, -187500.02, -13231.32, -40221.27, 0.00, 0.00, 0.00
58, -187500.02, -187500.02, -103089.15, -187500.02, -187500.02, -187500.02, -14918.54, -39674.90, 0.00, 0.00, 0.00
59, -187500.02, -187500.02, -105036.68, -187500.02, -187500.02, -187500.02, -15781.99, -39320.72, 0.00, 0.00, 0.00
60, -187500.02, -187500.02, -103757.78, -187500.02, -187500.02, -187500.02, -14346.82, -39670.48, 0.00, 0.00, 0.00
61, -187500.02, -187500.02, -101290.70, -187500.02, -187500.02, -187500.02, -13006.50, -40039.41, 0.00, 0.00, 0.00
62, -187500.02, -187500.02, -102285.60, -187500.02, -187500.02, -187500.02, -14372.82, -39615.47, 0.00, 0.00, 0.00
63, -187500.02, -187500.02, -104540.76, -187500.02, -187500.02, -187500.02, -15611.24, -39171.83, 0.00, 0.00, 0.00
64, -187500.02, -187500.02, -103861.31, -187500.02, -187500.02, -187500.02, -14515.04, -39399.73, 0.00, 0.00, 0.00
65, -187500.02, -187500.02, -101258.56, -187500.02, -187500.02, -187500.02, -12908.04, -39890.98, 0.00, 0.00, 0.00
66, -187500.02, -187500.02, -101559.80, -187500.02, -187500.02, -187500.02, -13864.32, -39657.83, -0.02, 0.91, 0.39
67, -187500.02, -187500.02, -104048.57, -187500.02, -187500.02, -187500.02, -15479.83, -39176.53, 0.00, 0.00, 0.00
68, -187500.02, -187500.02, -103927.96, -187500.02, -187500.02, -187500.02, -14759.62, -39378.54, 0.00, 0.00, 0.00
69, -187500.02, -187500.02, -101316.16, -187500.02, -187500.02, -187500.02, -13011.96, -39894.58, 0.00, 0.00, 0.00
70, -187500.02, -187500.02, -100906.43, -187500.02, -187500.02, -187500.02, -13488.92, -39756.02, 0.00, 0.00, 0.00
71, -187500.02, -187500.02, -103384.70, -187500.02, -187500.02, -187500.02, -15285.13, -39201.88, 0.00, 0.00, 0.00
72, -187500.02, -187500.02, -103887.80, -187500.02, -187500.02, -187500.02, -14987.69, -39244.39, 0.00, 0.00, 0.00
73, -187500.02, -187500.02, -101451.19, -187500.02, -187500.02, -187500.02, -13163.63, -39741.38, 0.00, 0.00, 0.00
74, -187500.02, -187500.02, -100307.90, -187500.02, -187500.02, -187500.02, -13093.41, -39761.09, 0.00, 0.00, 0.00
75, -187500.02, -187500.02, -102708.12, -187500.02, -187500.02, -187500.02, -15035.08, -39184.80, 0.00, 0.00, 0.00
76, -187500.02, -187500.02, -103773.73, -187500.02, -187500.02, -187500.02, -15156.47, -39176.37, -0.02, 0.92, 0.39
77, -187500.02, -187500.02, -101671.17, -187500.02, -187500.02, -187500.02, -13436.10, -39685.83, 0.00, 0.00, 0.00
78, -187500.02, -187500.02, -99972.73, -187500.02, -187500.02, -187500.02, -12941.97, -40005.98, 0.00, 0.00, 0.00
79, -187500.02, -187500.02, -102029.02, -187500.02, -187500.02, -187500.02, -14923.83, -39676.27, 0.00, 0.00, 0.00
80, -187500.02, -187500.02, -103657.24, -187500.02, -187500.02, -187500.02, -15660.06, -39782.68, 0.00, 0.00, 0.00
81, -187500.02, -187500.02, -102056.38, -187500.02, -187500.02, -187500.02, -14293.14, -40457.08, 0.00, 0.00, 0.00
82, -187500.02, -187500.02, -99923.02, -187500.02, -187500.02, -187500.02, -13542.56, -41171.40, 0.00, 0.00, 0.00
83, -187500.02, -187500.02, -101570.30, -187500.02, -187500.02, -187500.02, -15603.39, -41248.02, 0.00, 0.00, 0.00
84, -187500.02, -187500.02, -103676.30, -187500.02, -187500.02, -187500.02, -16954.04, -41310.56, 0.00, 0.00, 0.00
85, -187500.02, -187500.02, -102643.48, -187500.02, -187500.02, -187500.02, -15942.85, -41801.29, 0.00, 0.00, 0.00
86, -187500.02, -187500.02, -100241.00, -187500.02, -187500.02, -187500.02, -14810.69, -42453.94, -0.02, 0.91, 0.39
87, -187500.02, -187500.02, -101201.41, -187500.02, -187500.02, -187500.02, -16365.05, -42312.68, 0.00, 0.00, 0.00
88, -187500.02, -187500.02, -103604.45, -187500.02, -187500.02, -187500.02, -17944.94, -42178.21, 0.00, 0.00, 0.00
89, -187500.02, -187500.02, -103113.94, -187500.02, -187500.02, -187500.02, -17227.32, -42774.33, 0.00, 0.00, 0.00
90, -187500.02, -187500.02, -100579.88, -187500.02, -187500.02, -187500.02, -15835.03, -43320.83, 0.00, 0.00, 0.00
91, -187500.02, -187500.02, -100785.15, -187500.02, -187500.02, -187500.02, -16812.58, -43078.38, 0.00, 0.00, 0.00
92, -187500.02, -187500.02, -103238.44, -187500.02, -187500.02, -187500.02, -18440.55, -42440.48, 0.00, 0.00, 0.00
93, -187500.02, -187500.02, -103269.39, -187500.02, -187500.02, -187500.02, -17771.13, -42410.76, 0.00, 0.00, 0.00
94, -187500.02, -187500.02, -100743.53, -187500.02, -187500.02, -187500.02, -15936.61, -42762.51, 0.00, 0.00, 0.00
95, -187500.02, -187500.02, -100136.08, -187500.02, -187500.02, -187500.02, -16164.87, -42514.45, 0.00, 0.00, 0.00
96, -187500.02, -187500.02, -102603.02, -187500.02, -187500.02, -187500.02, -17860.47, -41676.93, -0.02, 0.92, 0.39
97, -187500.02, -187500.02, -103246.88, -187500.02, -187500.02, -187500.02, -17496.99, -41501.49, 0.00, 0.00, 0.00
98, -187500.02, -187500.02, -100876.52, -187500.02, -187500.02, -187500.02, -15552.32, -41909.05, 0.00, 0.00, 0.00
99, -187500.02, -187500.02, -99642.42, -187500.02, -187500.02, -187500.02, -15341.03, -42068.86, 0.00, 0.00, 0.00
100, -187500.02, -187500.02, -101942.41, -187500.02, -187500.02, -187500.02, -17226.02, -41494.09, 0.00, 0.00, 0.00
101, -187500.02, -187500.02, -103118.18, -187500.02, -187500.02, -187500.02, -17333.87, -41136.02, 0.00, 0.00, 0.00
102, -187500.02, -187500.02, -101077.65, -187500.02, -187500.02, -187500.02, -15463.36, -41398.36, 0.00, 0.00, 0.00
103, -187500.02, -187500.02, -99211.27, -187500.02, -187500.02, -187500.02, -14658.25, -41484.59, 0.00, 0.00, 0.00
104, -187500.02, -187500.02, -101149.40, -187500.02, -187500.02, -187500.02, -16391.90, -40874.10, 0.00, 0.00, 0.00
105, -187500.02, -187500.02, -102862.70, -187500.02, -187500.02, -187500.02, -16956.53, -40567.32, -0.02, 0.92, 0.39
106, -187500.02, -187500.02, -101287.93, -187500.02, -187500.02, -187500.02, -15311.75, -40892.18, 0.00, 0.00, 0.00
107, -187500.02, -187500.02, -98981.73, -187500.02, -187500.02, -187500.02, -14099.50, -41149.40, 0.00, 0.00, 0.00
108, -187500.02, -187500.02, -100370.41, -187500.02, -187500.02, -187500.02, -15589.49, -40480.44, 0.00, 0.00, 0.00
109, -187500.02, -187500.02, -102505.32, -187500.02, -187500.02, -187500.02, -16559.65, -39992.32, 0.00, 0.00, 0.00
110, -187500.02, -187500.02, -101493.63, -187500.02, -187500.02, -187500.02, -15153.77, -40156.96, 0.00, 0.00, 0.00
111, -187500.02, -187500.02, -98908.74, -187500.02, -187500.02, -187500.02, -13552.29, -40480.10, 0.00, 0.00, 0.00
112, -187500.02, -187500.02, -99616.36, -187500.02, -187500.02, -187500.02, -14692.85, -40089.68, 0.00, 0.00, 0.00
113, -187500.02, -187500.02, -102083.03, -187500.02, -187500.02, -187500.02, -16096.29, -39564.38, 0.00, 0.00, 0.00
114, -187500.02, -187500.02, -101701.59, -187500.02, -187500.02, -187500.02, -15106.74, -39774.79, 0.00, 0.00, 0.00
115, -187500.02, -187500.02, -99074.15, -187500.02, -187500.02, -187500.02, -13352.62, -40273.73, -0.02, 0.92, 0.39
116, -187500.02, -187500.02, -99054.59, -187500.02, -187500.02, -187500.02, -14078.96, -40065.14, 0.00, 0.00, 0.00
117, -187500.02, -187500.02, -101604.14, -187500.02, -187500.02, -187500.02, -15786.32, -39507.54, 0.00, 0.00, 0.00
118, -187500.02, -187500.02, -101815.01, -187500.02, -187500.02, -187500.02, -15217.22, -39596.47, 0.00, 0.00, 0.00
119, -187500.02, -187500.02, -99308.88, -187500.02, -187500.02, -187500.02, -13395.33, -40094.07, 0.00, 0.00, 0.00
120, -187500.02, -187500.02, -98576.91, -187500.02, -187500.02, -187500.02, -13624.42, -40090.07, 0.00, 0.00, 0.00
121, -187500.02, -187500.02, -101093.61, -187500.02, -187500.02, -187500.02, -15569.15, -39626.91, 0.00, 0.00, 0.00
122, -187500.02, -187500.02, -101927.66, -187500.02, -187500.02, -187500.02, -15534.89, -39732.75, 0.00, 0.00, 0.00
123, -187500.02, -187500.02, -99727.65, -187500.02, -187500.02, -187500.02, -13809.22, -40243.69, 0.00, 0.00, 0.00
124, -187500.02, -187500.02, -98357.38, -187500.02, -187500.02, -187500.02, -13550.59, -40429.32, 0.00, 0.00, 0.00
125, -187500.02, -187500.02, -100623.17, -187500.02, -187500.02, -187500.02, -15518.30, -39994.09, -0.01, 0.92, 0.39
126, -187500.02, -187500.02, -101986.09, -187500.02, -187500.02, -187500.02, -15879.89, -39824.73, 0.00, 0.00, 0.00
127, -187500.02, -187500.02, -100142.41, -187500.02, -187500.02, -187500.02, -14183.12, -40053.43, 0.00, 0.00, 0.00
128, -187500.02, -187500.02, -98192.26, -187500.02, -187500.02, -187500.02, -13257.85, -40070.24, 0.00, 0.00, 0.00
129, -187500.02, -187500.02, -99965.65, -187500.02, -187500.02, -187500.02, -14876.36, -39441.60, 0.00, 0.00, 0.00
130, -187500.02, -187500.02, -101815.10, -187500.02, -187500.02, -187500.02, -15690.14, -39602.02, 0.00, 0.00, 0.00
131, -187500.02, -187500.02, -100675.43, -187500.02, -187500.02, -187500.02, -14852.06, -41306.94, 0.00, 0.00, 0.00
132, -187500.02, -187500.02, -98481.94, -187500.02, -187500.02, -187500.02, -14157.71, -41862.94, 0.00, 0.00, 0.00
133, -187500.02, -187500.02, -99652.77, -187500.02, -187500.02, -187500.02, -15598.41, -41051.30, 0.00, 0.00, 0.00
134, -187500.02, -187500.02, -102439.07, -187500.02, -187500.02, -187500.02, -18387.28, -45319.10, 0.00, 0.00, 0.00
135, -187500.02, -187500.02, -103352.05, -187500.02, -187500.02, -187500.02, -22666.81, -56188.02, -0.02, 0.92, 0.39
136, -187500.02, -187500.02, -103440.85, -187500.02, -187500.02, -187500.02, -29563.11, -69658.59, 0.00, 0.00, 0.00
137, -187500.02, -187500.02, -105823.81, -187500.02, -187500.02, -187500.02, -38833.61, -78016.95, 0.00, 0.00, 0.00
138, -187500.02, -187500.02, -108863.84, -187500.02, -187500.02, -187500.02, -45421.76, -79965.76, 0.00, 0.00, 0.00
139, -187500.02, -187500.02, -109414.20, -187500.02, -187500.02, -187500.02, -48197.51, -81049.88, 0.00, 0.00, 0.00
140, -187500.02, -187500.02, -108001.55, -187500.02, -187500.02, -187500.02, -49168.07, -81898.58, 0.00, 0.00, 0.00
141, -187500.02, -187500.02, -108434.66, -187500.02, -187500.02, -187500.02, -51373.34, -82414.14, 0.00, 0.00, 0.00
142, -187500.02, -187500.02, -110925.24, -187500.02, -187500.02, -187500.02, -54153.94, -82701.95, 0.00, 0.00, 0.00
143, -187500.02, -187500.02, -111604.49, -187500.02, -187500.02, -187500.02, -54848.88, -83081.59, 0.00, 0.00, 0.00
144, -187500.02, -187500.02, -110032.85, -187500.02, -187500.02, -187500.02, -54187.71, -83536.27, 0.00, 0.00, 0.00
145, -187500.02, -187500.02, -109746.37, -187500.02, -187500.02, -187500.02, -54900.93, -83817.61, -0.02, 0.92, 0.39
146, -187500.02, -187500.02, -112013.62, -187500.02, -187500.02, -187500.02, -56970.66, -83867.25, 0.00, 0.00, 0.00
147, -187500.02, -187500.02, -113092.80, -187500.02, -187500.02, -187500.02, -57481.53, -84018.44, 0.00, 0.00, 0.00
148, -187500.02, -187500.02, -111621.37, -187500.02, -187500.02, -187500.02, -56403.48, -84295.55, 0.00, 0.00, 0.00
149, -187500.02, -187500.02, -110738.18, -187500.02, -187500.02, -187500.02, -56362.63, -84489.70, 0.00, 0.00, 0.00
150, -187500.02, -187500.02, -112737.57, -187500.02, -187500.02, -187500.02, -58154.14, -84502.87, 0.00, 0.00, 0.00
151, -187500.02, -187500.02, -114241.23, -187500.02, -187500.02, -187500.02, -58842.48, -84554.77, 0.00, 0.00, 0.00
152, -187500.02, -187500.02, -113080.51, -187500.02, -187500.02, -187500.02, -57723.09, -84754.33, 0.00, 0.00, 0.00
153, -187500.02, -187500.02, -111743.05, -187500.02, -187500.02, -187500.02, -57157.79, -84961.23, 0.00, 0.00, 0.00
154, -187500.02, -187500.02, -113344.73, -187500.02, -187500.02, -187500.02, -58699.32, -84944.47, 0.00, 0.00, 0.00
155, -187500.02, -187500.02, -115177.40, -187500.02, -187500.02, -187500.02, -59629.49, -84911.63, -0.02, 0.91, 0.39
156, -187500.02, -187500.02, -114351.88, -187500.02, -187500.02, -187500.02, -58604.59, -85055.38, 0.00, 0.00, 0.00
157, -187500.02, -187500.02, -112684.66, -187500.02, -187500.02, -187500.02, -57656.75, -85228.02, 0.00, 0.00, 0.00
158, -187500.02, -187500.02, -113773.48, -187500.02, -187500.02, -187500.02, -58871.27, -85188.80, 0.00, 0.00, 0.00
159, -187500.02, -187500.02, -115835.50, -187500.02, -187500.02, -187500.02, -60054.57, -85122.48, 0.00, 0.00, 0.00
160, -187500.02, -187500.02, -115452.66, -187500.02, -187500.02, -187500.02, -59263.59, -85235.80, 0.00, 0.00, 0.00
161, -187500.02, -187500.02, -113574.17, -187500.02, -187500.02, -187500.02, -58030.98, -85428.14, 0.00, 0.00, 0.00
162, -187500.02, -187500.02, -114088.26, -187500.02, -187500.02, -187500.02, -58877.87, -85385.67, 0.00, 0.00, 0.00
163, -187500.02, -187500.02, -116300.19, -187500.02, -187500.02, -187500.02, -60290.79, -85269.13, 0.00, 0.00, 0.00
164, -187500.02, -187500.02, -116385.95, -187500.02, -187500.02, -187500.02, -59797.60, -85344.79, 0.00, 0.00, 0.00
165, -187500.02, -187500.02, -114463.08, -187500.02, -187500.02, -187500.02, -58419.55, -85533.69, -0.02, 0.91, 0.39
166, -187500.02, -187500.02, -114367.13, -187500.02, -187500.02, -187500.02, -58853.75, -85559.23, 0.00, 0.00, 0.00
167, -187500.02, -187500.02, -116590.72, -187500.02, -187500.02, -187500.02, -60422.64, -85414.20, 0.00, 0.00, 0.00
168, -187500.02, -187500.02, -117154.25, -187500.02, -187500.02, -187500.02, -60254.24, -85432.90, 0.00, 0.00, 0.00
169, -187500.02, -187500.02, -115292.35, -187500.02, -187500.02, -187500.02, -58771.34, -85612.37, 0.00, 0.00, 0.00
170, -187500.02, -187500.02, -114662.39, -187500.02, -187500.02, -187500.02, -58797.94, -85690.98, 0.00, 0.00, 0.00
171, -187500.02, -187500.02, -116727.45, -187500.02, -187500.02, -187500.02, -60393.34, -85563.15, 0.00, 0.00, 0.00
172, -187500.02, -187500.02, -117741.70, -187500.02, -187500.02, -187500.02, -60564.60, -85530.31, 0.00, 0.00, 0.00
173, -187500.02, -187500.02, -116156.06, -187500.02, -187500.02, -187500.02, -59155.45, -85658.72, 0.00, 0.00, 0.00
174, -187500.02, -187500.02, -115021.83, -187500.02, -187500.02, -187500.02, -58738.86, -85722.42, 0.00, 0.00, 0.00
175, -187500.02, -187500.02, -116811.89, -187500.02, -187500.02, -187500.02, -60247.65, -85597.61, -0.02, 0.92, 0.39
176, -187500.02, -187500.02, -118285.70, -187500.02, -187500.02, -187500.02, -60804.19, -85545.35, 0.00, 0.00, 0.00
177, -187500.02, -187500.02, -117075.04, -187500.02, -187500.02, -187500.02, -59541.85, -85666.25, 0.00, 0.00, 0.00
178, -187500.02, -187500.02, -115524.90, -187500.02, -187500.02, -187500.02, -58733.45, -85801.10, 0.00, 0.00, 0.00
179, -187500.02, -187500.02, -116895.41, -187500.02, -187500.02, -187500.02, -60073.33, -85722.22, 0.00, 0.00, 0.00
180, -187500.02, -187500.02, -118709.20, -187500.02, -187500.02, -187500.02, -60961.95, -85613.68, 0.00, 0.00, 0.00
181, -187500.02, -187500.02, -117889.40, -187500.02, -187500.02, -187500.02, -59887.03, -85690.48, 0.00, 0.00, 0.00
182, -187500.02, -187500.02, -116033.45, -187500.02, -187500.02, -187500.02, -58764.23, -85825.40, 0.00, 0.00, 0.00
183, -187500.02, -187500.02, -116892.45, -187500.02, -187500.02, -187500.02, -59826.07, -85775.51, 0.00, 0.00, 0.00
184, -187500.02, -187500.02, -118947.60, -187500.02, -187500.02, -187500.02, -61013.31, -85650.85, 0.00, 0.00, 0.00
185, -187500.02, -187500.02, -118593.99, -187500.02, -187500.02, -187500.02, -60221.27, -85733.96, -0.02, 0.92, 0.39
186, -187500.02, -187500.02, -116637.45, -187500.02, -187500.02, -187500.02, -58898.01, -85882.09, 0.00, 0.00, 0.00
187, -187500.02, -187500.02, -116928.21, -187500.02, -187500.02, -187500.02, -59581.90, -85817.73, 0.00, 0.00, 0.00
188, -187500.02, -187500.02, -119081.24, -187500.02, -187500.02, -187500.02, -60977.86, -85672.78, 0.00, 0.00, 0.00
189, -187500.02, -187500.02, -119229.14, -187500.02, -187500.02, -187500.02, -60503.84, -85709.80, 0.00, 0.00, 0.00
190, -187500.02, -187500.02, -117324.86, -187500.02, -187500.02, -187500.02, -59080.71, -85863.55, 0.00, 0.00, 0.00
191, -187500.02, -187500.02, -117072.58, -187500.02, -187500.02, -187500.02, -59374.86, -85880.34, 0.00, 0.00, 0.00
192, -187500.02, -187500.02, -119195.57, -187500.02, -187500.02, -187500.02, -60889.32, -85733.42, 0.00, 0.00, 0.00
193, -187500.02, -187500.02, -119819.23, -187500.02, -187500.02, -187500.02, -60768.60, -85722.09, 0.00, 0.00, 0.00
194, -187500.02, -187500.02, -118027.91, -187500.02, -187500.02, -187500.02, -59309.32, -85860.18, -0.02, 0.91, 0.40
195, -187500.02, -187500.02, -117211.07, -187500.02, -187500.02, -187500.02, -59171.46, -85929.45, 0.00, 0.00, 0.00
196, -187500.02, -187500.02, -119202.07, -187500.02, -187500.02, -187500.02, -60743.84, -85802.96, 0.00, 0.00, 0.00
197, -187500.02, -187500.02, -120320.24, -187500.02, -187500.02, -187500.02, -61002.56, -85727.85, 0.00, 0.00, 0.00
198, -187500.02, -187500.02, -118771.40, -187500.02, -187500.02, -187500.02, -59585.52, -85861.66, 0.00, 0.00, 0.00
199, -187500.02, -187500.02, -117451.04, -187500.02, -187500.02, -187500.02, -59032.36, -85922.23, 0.00, 0.00, 0.00
200, -187500.02, -187500.02, -119118.01, -187500.02, -187500.02, -187500.02, -60504.07, -85775.73, 0.00, 0.00, 0.00
201, -187500.02, -187500.02, -120616.20, -187500.02, -187500.02, -187500.02, -61109.49, -85707.56, 0.00, 0.00, 0.00
202, -187500.02, -187500.02, -119463.12, -187500.02, -187500.02, -187500.02, -59889.98, -85812.37, 0.00, 0.00, 0.00
203, -187500.02, -187500.02, -117783.95, -187500.02, -187500.02, -187500.02, -58987.70, -85934.95, 0.00, 0.00, 0.00
204, -187500.02, -187500.02, -118994.42, -187500.02, -187500.02, -187500.02, -60235.58, -85849.16, -0.02, 0.91, 0.39
205, -187500.02, -187500.02, -120826.28, -187500.02, -187500.02, -187500.02, -61182.18, -85751.01, 0.00, 0.00, 0.00
206, -187500.02, -187500.02, -120103.66, -187500.02, -187500.02, -187500.02, -60179.52, -85803.20, 0.00, 0.00, 0.00
207, -187500.02, -187500.02, -118225.62, -187500.02, -187500.02, -187500.02, -59006.97, -85945.49, 0.00, 0.00, 0.00
208, -187500.02, -187500.02, -118952.76, -187500.02, -187500.02, -187500.02, -59978.54, -85900.41, 0.00, 0.00, 0.00
209, -187500.02, -187500.02, -121042.25, -187500.02, -187500.02, -187500.02, -61216.87, -85739.92, 0.00, 0.00, 0.00
210, -187500.02, -187500.02, -120774.83, -187500.02, -187500.02, -187500.02, -60470.36, -85787.98, 0.00, 0.00, 0.00
211, -187500.02, -187500.02, -118800.28, -187500.02, -187500.02, -187500.02, -59114.02, -85948.35, 0.00, 0.00, 0.00
212, -187500.02, -187500.02, -118927.82, -187500.02, -187500.02, -187500.02, -59692.66, -85936.76, 0.00, 0.00, 0.00
213, -187500.02, -187500.02, -121045.48, -187500.02, -187500.02, -187500.02, -61116.53, -85789.03, 0.00, 0.00, 0.00
214, -187500.02, -187500.02, -121292.34, -187500.02, -187500.02, -187500.02, -60746.36, -85800.32, -0.01, 0.91, 0.39
215, -187500.02, -187500.02, -119351.18, -187500.02, -187500.02, -187500.02, -59299.20, -85936.42, 0.00, 0.00, 0.00
216, -187500.02, -187500.02, -118896.21, -187500.02, -187500.02, -187500.02, -59469.81, -85966.08, 0.00, 0.00, 0.00
217, -187500.02, -187500.02, -120960.23, -187500.02, -187500.02, -187500.02, -61009.89, -85812.19, 0.00, 0.00, 0.00
218, -187500.02, -187500.02, -121682.96, -187500.02, -187500.02, -187500.02, -60979.16, -85772.40, 0.00, 0.00, 0.00
219, -187500.02, -187500.02, -119911.34, -187500.02, -187500.02, -187500.02, -59517.04, -85906.83, 0.00, 0.00, 0.00
220, -187500.02, -187500.02, -118929.72, -187500.02, -187500.02, -187500.02, -59269.25, -85948.98, 0.00, 0.00, 0.00
221, -187500.02, -187500.02, -120796.51, -187500.02, -187500.02, -187500.02, -60794.02, -85804.37, 0.00, 0.00, 0.00
222, -187500.02, -187500.02, -121974.65, -187500.02, -187500.02, -187500.02, -61123.68, -85774.68, 0.00, 0.00, 0.00
223, -187500.02, -187500.02, -120495.14, -187500.02, -187500.02, -187500.02, -59754.23, -85884.43, 0.00, 0.00, 0.00
224, -187500.02, -187500.02, -119076.05, -187500.02, -187500.02, -187500.02, -59121.66, -85978.44, -0.01, 0.91, 0.39
225, -187500.02, -187500.02, -120634.04, -187500.02, -187500.02, -187500.02, -60548.41, -85854.75, 0.00, 0.00, 0.00
226, -187500.02, -187500.02, -122203.17, -187500.02, -187500.02, -187500.02, -61225.76, -85770.05, 0.00, 0.00, 0.00
227, -187500.02, -187500.02, -121120.27, -187500.02, -187500.02, -187500.02, -60041.21, -85874.66, 0.00, 0.00, 0.00
228, -187500.02, -187500.02, -119386.02, -187500.02, -187500.02, -187500.02, -59082.54, -85992.09, 0.00, 0.00, 0.00
229, -187500.02, -187500.02, -120479.05, -187500.02, -187500.02, -187500.02, -60275.79, -85881.45, 0.00, 0.00, 0.00
230, -187500.02, -187500.02, -122348.95, -187500.02, -187500.02, -187500.02, -61284.50, -85772.85, 0.00, 0.00, 0.00
231, -187500.02, -187500.02, -121726.91, -187500.02, -187500.02, -187500.02, -60342.53, -85851.57, 0.00, 0.00, 0.00
232, -187500.02, -187500.02, -119777.20, -187500.02, -187500.02, -187500.02, -59107.27, -85965.32, 0.00, 0.00, 0.00
233, -187500.02, -187500.02, -120340.47, -187500.02, -187500.02, -187500.02, -59991.70, -85893.95, 0.00, 0.00, 0.00
234, -187500.02, -187500.02, -122431.09, -187500.02, -187500.02, -187500.02, -61282.34, -85754.84, -0.02, 0.91, 0.40
235, -187500.02, -187500.02, -122278.01, -187500.02, -187500.02, -187500.02, -60629.46, -85816.23, 0.00, 0.00, 0.00
236, -187500.02, -187500.02, -120247.55, -187500.02, -187500.02, -187500.02, -59225.71, -85988.19, 0.00, 0.00, 0.00
237, -187500.02, -187500.02, -120215.03, -187500.02, -187500.02, -187500.02, -59724.51, -85960.94, 0.00, 0.00, 0.00
238, -187500.02, -187500.02, -122344.77, -187500.02, -187500.02, -187500.02, -61191.61, -85775.40, 0.00, 0.00, 0.00
239, -187500.02, -187500.02, -122675.80, -187500.02, -187500.02, -187500.02, -60868.22, -85771.95, 0.00, 0.00, 0.00
240, -187500.02, -187500.02, -120714.77, -187500.02, -187500.02, -187500.02, -59385.99, -85943.73, 0.00, 0.00, 0.00
241, -187500.02, -187500.02, -120123.12, -187500.02, -187500.02, -187500.02, -59471.69, -85980.14, 0.00, 0.00, 0.00
242, -187500.02, -187500.02, -122134.89, -187500.02, -187500.02, -187500.02, -61004.75, -85830.34, 0.00, 0.00, 0.00
243, -187500.02, -187500.02, -122937.30, -187500.02, -187500.02, -187500.02, -61045.43, -85774.41, 0.00, 0.00, 0.00
244, -187500.02, -187500.02, -121211.65, -187500.02, -187500.02, -187500.02, -59606.29, -85902.49, -0.03, 0.91, 0.40
245, -187500.02, -187500.02, -120112.77, -187500.02, -187500.02, -187500.02, -59280.82, -85990.53, 0.00, 0.00, 0.00
246, -187500.02, -187500.02, -121910.88, -187500.02, -187500.02, -187500.02, -60807.74, -85854.10, 0.00, 0.00, 0.00
247, -187500.02, -187500.02, -123168.75, -187500.02, -187500.02, -187500.02, -61220.31, -85790.89, 0.00, 0.00, 0.00
248, -187500.02, -187500.02, -121743.80, -187500.02, -187500.02, -187500.02, -59877.80, -85877.05, 0.00, 0.00, 0.00
249, -187500.02, -187500.02, -120210.49, -187500.02, -187500.02, -187500.02, -59164.30, -85949.88, 0.00, 0.00, 0.00
250, -187500.02, -187500.02, -121668.50, -187500.02, -187500.02, -187500.02, -60553.00, -85831.68, 0.00, 0.00, 0.00
251, -187500.02, -187500.02, -123302.68, -187500.02, -187500.02, -187500.02, -61307.41, -85750.50, 0.00, 0.00, 0.00
252, -187500.02, -187500.02, -122307.58, -187500.02, -187500.02, -187500.02, -60172.23, -85841.91, 0.00, 0.00, 0.00
253, -187500.02, -187500.02, -120487.68, -187500.02, -187500.02, -187500.02, -59126.60, -85954.01, 0.00, 0.00, 0.00
254, -187500.02, -187500.02, -121434.59, -187500.02, -187500.02, -187500.02, -60241.91, -85871.17, -0.03, 0.91, 0.39
255, -187500.02, -187500.02, -123312.98, -187500.02, -187500.02, -187500.02, -61246.21, -85513.23, 0.00, 0.00, 0.00
0, -187500.02, -187500.02, -122344.55, -187500.02, -187500.02, -187500.02, -59135.92, -82203.30, 0.00, 0.00, 0.00
1, -187500.02, -187500.02, -119469.22, -187500.02, -187500.02, -187500.02, -54606.81, -76423.98, 0.00, 0.00, 0.00
2, -187500.02, -187500.02, -119090.91, -187500.02, -187500.02, -187500.02, -51952.52, -72435.61, 0.00, 0.00, 0.00
3, -187500.02, -187500.02, -120701.47, -187500.02, -187500.02, -187500.02, -50804.71, -71059.70, 0.00, 0.00, 0.00
4, -187500.02, -187500.02, -120709.92, -187500.02, -187500.02, -187500.02, -49939.41, -73863.04, 0.00, 0.00, 0.00
5, -187500.02, -187500.02, -118696.05, -187500.02, -187500.02, -187500.02, -48927.05, -74949.78, 0.00, 0.00, 0.00
6, -187500.02, -187500.02, -118153.58, -187500.02, -187500.02, -187500.02, -48401.67, -72391.15, 0.00, 0.00, 0.00
7, -187500.02, -187500.02, -119722.80, -187500.02, -187500.02, -187500.02, -48045.99, -69268.39, 0.00, 0.00, 0.00
8, -187500.02, -187500.02, -119607.63, -187500.02, -187500.02, -187500.02, -45690.14, -66609.45, -0.03, 0.92, 0.39
9, -187500.02, -187500.02, -117142.80, -187500.02, -187500.02, -187500.02, -42107.49, -64582.10, 0.00, 0.00, 0.00
10, -187500.02, -187500.02, -116063.13, -187500.02, -187500.02, -187500.02, -40709.95, -64513.70, 0.00, 0.00, 0.00
11, -187500.02, -187500.02, -118551.68, -187500.02, -187500.02, -187500.02, -43685.97, -70136.15, 0.00, 0.00, 0.00
12, -187500.02, -187500.02, -120444.59, -187500.02, -187500.02, -187500.02, -47856.36, -77590.30, 0.00, 0.00, 0.00
13, -187500.02, -187500.02, -119346.11, -187500.02, -187500.02, -187500.02, -49865.40, -80806.78, 0.00, 0.00, 0.00
14, -187500.02, -187500.02, -118385.27, -187500.02, -187500.02, -187500.02, -51499.00, -81486.21, 0.00, 0.00, 0.00
15, -187500.02, -187500.02, -120072.05, -187500.02, -187500.02, -187500.02, -53737.75, -80252.23, 0.00, 0.00, 0.00
16, -187500.02, -187500.02, -121043.21, -187500.02, -187500.02, -187500.02, -53401.47, -76890.36, 0.00, 0.00, 0.00
17, -187500.02, -187500.02, -119069.59, -187500.02, -187500.02, -187500.02, -49816.74, -72353.60, 0.00, 0.00, 0.00
18, -187500.02, -187500.02, -116674.56, -187500.02, -187500.02, -187500.02, -45968.13, -68123.64, -0.03, 0.92, 0.39
19, -187500.02, -187500.02, -117246.18, -187500.02, -187500.02, -187500.02, -44234.97, -64540.70, 0.00, 0.00, 0.00
20, -187500.02, -187500.02, -118307.27, -187500.02, -187500.02, -187500.02, -42321.80, -61810.15, 0.00, 0.00, 0.00
21, -187500.02, -187500.02, -116819.53, -187500.02, -187500.02, -187500.02, -38876.77, -59927.98, 0.00, 0.00, 0.00
22, -187500.02, -187500.02, -114367.86, -187500.02, -187500.02, -187500.02, -35725.55, -58373.97, 0.00, 0.00, 0.00
23, -187500.02, -187500.02, -114667.77, -187500.02, -187500.02, -187500.02, -34941.50, -56658.52, 0.00, 0.00, 0.00
24, -187500.02, -187500.02, -116178.98, -187500.02, -187500.02, -187500.02, -34442.74, -55109.77, 0.00, 0.00, 0.00
25, -187500.02, -187500.02, -115301.94, -187500.02, -187500.02, -187500.02, -32191.70, -54102.95, 0.00, 0.00, 0.00
26, -187500.02, -187500.02, -112762.55, -187500.02, -187500.02, -187500.02, -29601.55, -53416.69, 0.00, 0.00, 0.00
27, -187500.02, -187500.02, -112604.73, -187500.02, -187500.02, -187500.02, -29233.78, -52433.46, -0.02, 0.91, 0.39
28, -187500.02, -187500.02, -114393.81, -187500.02, -187500.02, -187500.02, -29618.43, -51308.94, 0.00, 0.00, 0.00
29, -187500.02, -187500.02, -114040.97, -187500.02, -187500.02, -187500.02, -28136.17, -50625.40, 0.00, 0.00, 0.00
30, -187500.02, -187500.02, -111554.22, -187500.02, -187500.02, -187500.02, -25791.65, -50128.97, 0.00, 0.00, 0.00
31, -187500.02, -187500.02, -110823.84, -187500.02, -187500.02, -187500.02, -25262.66, -49280.27, 0.00, 0.00, 0.00
32, -187500.02, -187500.02, -112630.98, -187500.02, -187500.02, -187500.02, -25984.93, -48211.59, 0.00, 0.00, 0.00
33, -187500.02, -187500.02, -112860.48, -187500.02, -187500.02, -187500.02, -25029.77, -47551.08, 0.00, 0.00, 0.00
34, -187500.02, -187500.02, -110516.34, -187500.02, -187500.02, -187500.02, -22781.30, -47266.50, 0.00, 0.00, 0.00
35, -187500.02, -187500.02, -109219.59, -187500.02, -187500.02, -187500.02, -22014.21, -46752.43, 0.00, 0.00, 0.00
36, -187500.02, -187500.02, -110990.09, -187500.02, -187500.02, -187500.02, -23039.22, -45829.21, 0.00, 0.00, 0.00
37, -187500.02, -187500.02, -111764.13, -187500.02, -187500.02, -187500.02, -22640.21, -45307.14, -0.03, 0.92, 0.38
38, -187500.02, -187500.02, -109720.59, -187500.02, -187500.02, -187500.02, -20631.11, -45205.06, 0.00, 0.00, 0.00
39, -187500.02, -187500.02, -107914.30, -187500.02, -187500.02, -187500.02, -19619.69, -44978.23, 0.00, 0.00, 0.00
40, -187500.02, -187500.02, -109416.01, -187500.02, -187500.02, -187500.02, -20791.12, -44275.47, 0.00, 0.00, 0.00
41, -187500.02, -187500.02, -110686.10, -187500.02, -187500.02, -187500.02, -20967.97, -43845.88, 0.00, 0.00, 0.00
42, -187500.02, -187500.02, -109095.87, -187500.02, -187500.02, -187500.02, -19306.88, -43910.87, 0.00, 0.00, 0.00
43, -187500.02, -187500.02, -106942.39, -187500.02, -187500.02, -187500.02, -18105.63, -43973.55, 0.00, 0.00, 0.00
44, -187500.02, -187500.02, -108063.33, -187500.02, -187500.02, -187500.02, -19271.05, -43436.28, 0.00, 0.00, 0.00
45, -187500.02, -187500.02, -109818.05, -187500.02, -187500.02, -187500.02, -20036.75, -43213.95, 0.00, 0.00, 0.00
46, -187500.02, -187500.02, -108746.84, -187500.02, -187500.02, -187500.02, -18796.63, -43433.77, 0.00, 0.00, 0.00
47, -187500.02, -187500.02, -106360.28, -187500.02, -187500.02, -187500.02, -17414.91, -43654.72, -0.03, 0.92, 0.38
48, -187500.02, -187500.02, -106914.07, -187500.02, -187500.02, -187500.02, -18383.19, -43236.45, 0.00, 0.00, 0.00
49, -187500.02, -187500.02, -108934.02, -187500.02, -187500.02, -187500.02, -19444.54, -42618.45, 0.00, 0.00, 0.00
50, -187500.02, -187500.02, -108359.51, -187500.02, -187500.02, -187500.02, -18360.06, -42569.03, 0.00, 0.00, 0.00
51, -187500.02, -187500.02, -105859.40, -187500.02, -187500.02, -187500.02, -16688.15, -42850.84, 0.00, 0.00, 0.00
52, -187500.02, -187500.02, -105813.63, -187500.02, -187500.02, -187500.02, -17361.67, -42861.55, 0.00, 0.00, 0.00
53, -187500.02, -187500.02, -108082.64, -187500.02, -187500.02, -187500.02, -19031.68, -42857.86, 0.00, 0.00, 0.00
54, -187500.02, -187500.02, -108193.91, -187500.02, -187500.02, -187500.02, -18804.72, -43544.57, 0.00, 0.00, 0.00
55, -187500.02, -187500.02, -105974.11, -187500.02, -187500.02, -187500.02, -17738.10, -44810.02, 0.00, 0.00, 0.00
56, -187500.02, -187500.02, -105461.98, -187500.02, -187500.02, -187500.02, -18687.76, -45837.97, 0.00, 0.00, 0.00
57, -187500.02, -187500.02, -107842.09, -187500.02, -187500.02, -187500.02, -21115.02, -46221.33, -0.02, 0.91, 0.38
58, -187500.02, -187500.02, -108580.95, -187500.02, -187500.02, -187500.02, -21605.06, -46795.75, 0.00, 0.00, 0.00
59, -187500.02, -187500.02, -106695.76, -187500.02, -187500.02, -187500.02, -20805.79, -48214.90, 0.00, 0.00, 0.00
60, -187500.02, -187500.02, -105703.92, -187500.02, -187500.02, -187500.02, -21511.03, -49434.95, 0.00, 0.00, 0.00
61, -187500.02, -187500.02, -107796.67, -187500.02, -187500.02, -187500.02, -23929.26, -49613.14, 0.00, 0.00, 0.00
62, -187500.02, -187500.02, -109038.87, -187500.02, -187500.02, -187500.02, -24808.42, -50013.95, 0.00, 0.00, 0.00
63, -187500.02, -187500.02, -107521.77, -187500.02, -187500.02, -187500.02, -24098.73, -51251.90, 0.00, 0.00, 0.00
64, -187500.02, -187500.02, -106094.61, -187500.02, -187500.02, -187500.02, -24348.87, -52508.83, 0.00, 0.00, 0.00
65, -187500.02, -187500.02, -107833.02, -187500.02, -187500.02, -187500.02, -26720.32, -53122.07, 0.00, 0.00, 0.00
66, -187500.02, -187500.02, -109589.28, -187500.02, -187500.02, -187500.02, -28299.05, -54050.29, 0.00, 0.00, 0.00
67, -187500.02, -187500.02, -108601.91, -187500.02, -187500.02, -187500.02, -28212.66, -55816.46, -0.02, 0.91, 0.38
68, -187500.02, -187500.02, -106924.05, -187500.02, -187500.02, -187500.02, -28412.40, -57182.53, 0.00, 0.00, 0.00
69, -187500.02, -187500.02, -108244.40, -187500.02, -187500.02, -187500.02, -30737.94, -57931.45, 0.00, 0.00, 0.00
70, -187500.02, -187500.02, -110321.41, -187500.02, -187500.02, -187500.02, -32717.72, -58749.28, 0.00, 0.00, 0.00
71, -187500.02, -187500.02, -109813.02, -187500.02, -187500.02, -187500.02, -32807.58, -60133.43, 0.00, 0.00, 0.00
72, -187500.02, -187500.02, -107924.26, -187500.02, -187500.02, -187500.02, -32514.34, -61088.46, 0.00, 0.00, 0.00
73, -187500.02, -187500.02, -108680.21, -187500.02, -187500.02, -187500.02, -34387.75, -61966.72, 0.00, 0.00, 0.00
74, -187500.02, -187500.02, -110944.89, -187500.02, -187500.02, -187500.02, -36672.33, -62894.95, 0.00, 0.00, 0.00
75, -187500.02, -187500.02, -110925.42, -187500.02, -187500.02, -187500.02, -36909.64, -63725.20, 0.00, 0.00, 0.00
76, -187500.02, -187500.02, -109015.16, -187500.02, -187500.02, -187500.02, -36239.08, -64385.70, 0.00, 0.00, 0.00
77, -187500.02, -187500.02, -109105.63, -187500.02, -187500.02, -187500.02, -37296.77, -64608.30, -0.02, 0.91, 0.38
78, -187500.02, -187500.02, -111336.47, -187500.02, -187500.02, -187500.02, -39185.11, -64667.30, 0.00, 0.00, 0.00
79, -187500.02, -187500.02, -111737.26, -187500.02, -187500.02, -187500.02, -39243.22, -64997.39, 0.00, 0.00, 0.00
80, -187500.02, -187500.02, -109793.91, -187500.02, -187500.02, -187500.02, -37907.35, -64806.91, 0.00, 0.00, 0.00
81, -187500.02, -187500.02, -109042.52, -187500.02, -187500.02, -187500.02, -37515.10, -63347.28, 0.00, 0.00, 0.00
82, -187500.02, -187500.02, -110819.63, -187500.02, -187500.02, -187500.02, -37999.73, -61124.82, 0.00, 0.00, 0.00
83, -187500.02, -187500.02, -111224.89, -187500.02, -187500.02, -187500.02, -36507.86, -58827.78, 0.00, 0.00, 0.00
84, -187500.02, -187500.02, -109012.60, -187500.02, -187500.02, -187500.02, -33315.32, -56782.64, 0.00, 0.00, 0.00
85, -187500.02, -187500.02, -107430.05, -187500.02, -187500.02, -187500.02, -31240.38, -54900.71, 0.00, 0.00, 0.00
86, -187500.02, -187500.02, -108881.87, -187500.02, -187500.02, -187500.02, -31219.44, -53204.01, 0.00, 0.00, 0.00
87, -187500.02, -187500.02, -109825.25, -187500.02, -187500.02, -187500.02, -30332.30, -52216.87, -0.02, 0.92, 0.38
88, -187500.02, -187500.02, -108089.27, -187500.02, -187500.02, -187500.02, -28082.15, -52102.14, 0.00, 0.00, 0.00
89, -187500.02, -187500.02, -106291.98, -187500.02, -187500.02, -187500.02, -26829.47, -52177.62, 0.00, 0.00, 0.00
90, -187500.02, -187500.02, -107631.07, -187500.02, -187500.02, -187500.02, -27941.15, -51995.65, 0.00, 0.00, 0.00
91, -187500.02, -187500.02, -109202.04, -187500.02, -187500.02, -187500.02, -28570.24, -52097.27, 0.00, 0.00, 0.00
92, -187500.02, -187500.02, -108045.18, -187500.02, -187500.02, -187500.02, -27415.84, -52567.66, 0.00, 0.00, 0.00
93, -187500.02, -187500.02, -106054.91, -187500.02, -187500.02, -187500.02, -26394.95, -52806.80, 0.00, 0.00, 0.00
94, -187500.02, -187500.02, -106967.89, -187500.02, -187500.02, -187500.02, -27513.74, -52503.87, 0.00, 0.00, 0.00
95, -187500.02, -187500.02, -108863.38, -187500.02, -187500.02, -187500.02, -28507.17, -52212.33, 0.00, 0.00, 0.00
96, -187500.02, -187500.02, -108160.55, -187500.02, -187500.02, -187500.02, -27478.21, -52315.66, 0.00, 0.00, 0.00
97, -187500.02, -187500.02, -105943.09, -187500.02, -187500.02, -187500.02, -26109.27, -52552.10, -0.03, 0.92, 0.39
98, -187500.02, -187500.02, -106273.13, -187500.02, -187500.02, -187500.02, -26889.86, -52357.86, 0.00, 0.00, 0.00
99, -187500.02, -187500.02, -108376.03, -187500.02, -187500.02, -187500.02, -28198.89, -52134.84, 0.00, 0.00, 0.00
100, -187500.02, -187500.02, -108230.18, -187500.02, -187500.02, -187500.02, -27600.58, -52347.54, 0.00, 0.00, 0.00
101, -187500.02, -187500.02, -106060.41, -187500.02, -187500.02, -187500.02, -26218.35, -52700.70, 0.00, 0.00, 0.00
102, -187500.02, -187500.02, -105857.01, -187500.02, -187500.02, -187500.02, -26760.71, -52898.73, 0.00, 0.00, 0.00
103, -187500.02, -187500.02, -108065.23, -187500.02, -187500.02, -187500.02, -28581.26, -53259.46, 0.00, 0.00, 0.00
104, -187500.02, -187500.02, -108585.42, -187500.02, -187500.02, -187500.02, -28816.85, -54092.32, 0.00, 0.00, 0.00
105, -187500.02, -187500.02, -106766.26, -187500.02, -187500.02, -187500.02, -28227.59, -56051.54, 0.00, 0.00, 0.00
106, -187500.02, -187500.02, -106299.44, -187500.02, -187500.02, -187500.02, -29689.75, -58305.77, 0.00, 0.00, 0.00
107, -187500.02, -187500.02, -108566.15, -187500.02, -187500.02, -187500.02, -32648.12, -59241.33, -0.02, 0.92, 0.39
108, -187500.02, -187500.02, -109424.55, -187500.02, -187500.02, -187500.02, -33063.35, -58142.41, 0.00, 0.00, 0.00
109, -187500.02, -187500.02, -107443.71, -187500.02, -187500.02, -187500.02, -31037.21, -56526.42, 0.00, 0.00, 0.00
110, -187500.02, -187500.02, -105833.78, -187500.02, -187500.02, -187500.02, -29515.14, -54723.46, 0.00, 0.00, 0.00
111, -187500.02, -187500.02, -107348.45, -187500.02, -187500.02, -187500.02, -30058.22, -53402.38, 0.00, 0.00, 0.00
112, -187500.02, -187500.02, -108370.87, -187500.02, -187500.02, -187500.02, -29372.45, -51737.89, 0.00, 0.00, 0.00
113, -187500.02, -187500.02, -106561.24, -187500.02, -187500.02, -187500.02, -26631.07, -50112.88, 0.00, 0.00, 0.00
114, -187500.02, -187500.02, -104476.88, -187500.02, -187500.02, -187500.02, -24435.11, -48722.33, 0.00, 0.00, 0.00
115, -187500.02, -187500.02, -105499.58, -187500.02, -187500.02, -187500.02, -24534.44, -47242.09, 0.00, 0.00, 0.00
116, -187500.02, -187500.02, -106951.28, -187500.02, -187500.02, -187500.02, -24224.11, -46078.21, -0.02, 0.92, 0.39
117, -187500.02, -187500.02, -105687.23, -187500.02, -187500.02, -187500.02, -22103.33, -45523.30, 0.00, 0.00, 0.00
118, -187500.02, -187500.02, -103378.70, -187500.02, -187500.02, -187500.02, -20130.63, -45100.01, 0.00, 0.00, 0.00
119, -187500.02, -187500.02, -104009.66, -187500.02, -187500.02, -187500.02, -20520.40, -44228.76, 0.00, 0.00, 0.00
120, -187500.02, -187500.02, -105821.85, -187500.02, -187500.02, -187500.02, -20975.32, -43412.25, 0.00, 0.00, 0.00
121, -187500.02, -187500.02, -105099.38, -187500.02, -187500.02, -187500.02, -19491.17, -43115.78, 0.00, 0.00, 0.00
122, -187500.02, -187500.02, -102665.27, -187500.02, -187500.02, -187500.02, -17583.89, -43039.55, 0.00, 0.00, 0.00
123, -187500.02, -187500.02, -102706.64, -187500.02, -187500.02, -187500.02, -17899.57, -42508.41, 0.00, 0.00, 0.00
124, -187500.02, -187500.02, -104764.23, -187500.02, -187500.02, -187500.02, -18903.29, -41806.81, 0.00, 0.00, 0.00
125, -187500.02, -187500.02, -104603.27, -187500.02, -187500.02, -187500.02, -17942.28, -41622.39, 0.00, 0.00, 0.00
126, -187500.02, -187500.02, -102184.20, -187500.02, -187500.02, -187500.02, -16077.18, -41752.36, -0.02, 0.91, 0.39
127, -187500.02, -187500.02, -101607.14, -187500.02, -187500.02, -187500.02, -16156.87, -41475.16, 0.00, 0.00, 0.00
128, -187500.02, -187500.02, -103762.59, -187500.02, -187500.02, -187500.02, -17524.42, -40834.00, 0.00, 0.00, 0.00
129, -187500.02, -187500.02, -104170.80, -187500.02, -187500.02, -187500.02, -17051.56, -40704.58, 0.00, 0.00, 0.00
130, -187500.02, -187500.02, -101950.44, -187500.02, -187500.02, -187500.02, -15277.46, -40971.95, 0.00, 0.00, 0.00
131, -187500.02, -187500.02, -100797.36, -187500.02, -187500.02, -187500.02, -15022.61, -40944.19, 0.00, 0.00, 0.00
132, -187500.02, -187500.02, -102781.81, -187500.02, -187500.02, -187500.02, -16575.43, -40446.42, 0.00, 0.00, 0.00
133, -187500.02, -187500.02, -103700.73, -187500.02, -187500.02, -187500.02, -16620.98, -40318.79, 0.00, 0.00, 0.00
134, -187500.02, -187500.02, -101818.97, -187500.02, -187500.02, -187500.02, -15065.72, -40679.93, 0.00, 0.00, 0.00
135, -187500.02, -187500.02, -100132.86, -187500.02, -187500.02, -187500.02, -14479.10, -40883.04, 0.00, 0.00, 0.00
136, -187500.02, -187500.02, -101842.91, -187500.02, -187500.02, -187500.02, -16096.21, -40469.33, -0.02, 0.91, 0.39
137, -187500.02, -187500.02, -103269.37, -187500.02, -187500.02, -187500.02, -16623.13, -40343.04, 0.00, 0.00, 0.00
138, -187500.02, -187500.02, -101784.21, -187500.02, -187500.02, -187500.02, -15250.62, -40690.25, 0.00, 0.00, 0.00
139, -187500.02, -187500.02, -99709.34, -187500.02, -187500.02, -187500.02, -14307.69, -40982.93, 0.00, 0.00, 0.00
140, -187500.02, -187500.02, -100983.93, -187500.02, -187500.02, -187500.02, -15761.11, -40598.34, 0.00, 0.00, 0.00
141, -187500.02, -187500.02, -102819.09, -187500.02, -187500.02, -187500.02, -16667.83, -40356.39, 0.00, 0.00, 0.00
142, -187500.02, -187500.02, -101811.08, -187500.02, -187500.02, -187500.02, -15504.09, -40566.56, 0.00, 0.00, 0.00
143, -187500.02, -187500.02, -99456.99, -187500.02, -187500.02, -187500.02, -14187.17, -40904.79, 0.00, 0.00, 0.00
144, -187500.02, -187500.02, -100158.41, -187500.02, -187500.02, -187500.02, -15325.07, -40608.18, 0.00, 0.00, 0.00
145, -187500.02, -187500.02, -102283.45, -187500.02, -187500.02, -187500.02, -16554.62, -40242.62, 0.00, 0.00, 0.00
146, -187500.02, -187500.02, -101802.67, -187500.02, -187500.02, -187500.02, -15675.93, -40408.55, -0.02, 0.92, 0.39
147, -187500.02, -187500.02, -99412.71, -187500.02, -187500.02, -187500.02, -14188.04, -40781.67, 0.00, 0.00, 0.00
148, -187500.02, -187500.02, -99453.73, -187500.02, -187500.02, -187500.02, -14893.28, -40592.24, 0.00, 0.00, 0.00
149, -187500.02, -187500.02, -101695.38, -187500.02, -187500.02, -187500.02, -16352.58, -40133.94, 0.00, 0.00, 0.00
150, -187500.02, -187500.02, -101763.09, -187500.02, -187500.02, -187500.02, -15796.09, -40204.21, 0.00, 0.00, 0.00
151, -187500.02, -187500.02, -99431.04, -187500.02, -187500.02, -187500.02, -14195.84, -40649.42, 0.00, 0.00, 0.00
152, -187500.02, -187500.02, -98765.16, -187500.02, -187500.02, -187500.02, -14457.53, -40644.61, 0.00, 0.00, 0.00
153, -187500.02, -187500.02, -101037.30, -187500.02, -187500.02, -187500.02, -16194.06, -40243.33, 0.00, 0.00, 0.00
154, -187500.02, -187500.02, -101673.77, -187500.02, -187500.02, -187500.02, -16130.40, -40446.33, 0.00, 0.00, 0.00
155, -187500.02, -187500.02, -99586.41, -187500.02, -187500.02, -187500.02, -14713.19, -41191.85, 0.00, 0.00, 0.00
156, -187500.02, -187500.02, -98397.49, -187500.02, -187500.02, -187500.02, -14843.32, -41872.73, -0.02, 0.91, 0.38
157, -187500.02, -187500.02, -100584.59, -187500.02, -187500.02, -187500.02, -17162.16, -42492.12, 0.00, 0.00, 0.00
158, -187500.02, -187500.02, -102409.52, -187500.02, -187500.02, -187500.02, -19626.48, -47563.35, 0.00, 0.00, 0.00
159, -187500.02, -187500.02, -102250.60, -187500.02, -187500.02, -187500.02, -23660.57, -57883.44, 0.00, 0.00, 0.00
160, -187500.02, -187500.02, -101755.73, -187500.02, -187500.02, -187500.02, -28196.10, -62232.44, 0.00, 0.00, 0.00
161, -187500.02, -187500.02, -103053.34, -187500.02, -187500.02, -187500.02, -30380.45, -57250.01, 0.00, 0.00, 0.00
162, -187500.02, -187500.02, -104048.69, -187500.02, -187500.02, -187500.02, -29340.98, -52384.71, 0.00, 0.00, 0.00
163, -187500.02, -187500.02, -102411.53, -187500.02, -187500.02, -187500.02, -26248.52, -49973.69, 0.00, 0.00, 0.00
164, -187500.02, -187500.02, -100200.32, -187500.02, -187500.02, -187500.02, -23760.71, -48651.90, 0.00, 0.00, 0.00
165, -187500.02, -187500.02, -101085.56, -187500.02, -187500.02, -187500.02, -23845.11, -47393.21, 0.00, 0.00, 0.00
166, -187500.02, -187500.02, -102847.26, -187500.02, -187500.02, -187500.02, -24056.00, -46881.42, -0.02, 0.92, 0.39
167, -187500.02, -187500.02, -102033.61, -187500.02, -187500.02, -187500.02, -22743.30, -47417.70, 0.00, 0.00, 0.00
168, -187500.02, -187500.02, -99945.98, -187500.02, -187500.02, -187500.02, -21638.23, -48489.45, 0.00, 0.00, 0.00
169, -187500.02, -187500.02, -100615.81, -187500.02, -187500.02, -187500.02, -23070.62, -49207.16, 0.00, 0.00, 0.00
170, -187500.02, -187500.02, -102720.37, -187500.02, -187500.02, -187500.02, -24574.20, -48898.55, 0.00, 0.00, 0.00
171, -187500.02, -187500.02, -102394.43, -187500.02, -187500.02, -187500.02, -23826.53, -48756.15, 0.00, 0.00, 0.00
172, -187500.02, -187500.02, -100126.71, -187500.02, -187500.02, -187500.02, -22275.10, -48770.54, 0.00, 0.00, 0.00
173, -187500.02, -187500.02, -100003.49, -187500.02, -187500.02, -187500.02, -22690.91, -48424.81, 0.00, 0.00, 0.00
174, -187500.02, -187500.02, -102072.95, -187500.02, -187500.02, -187500.02, -23863.91, -47481.90, 0.00, 0.00, 0.00
175, -187500.02, -187500.02, -102148.63, -187500.02, -187500.02, -187500.02, -22888.43, -46556.80, 0.00, 0.00, 0.00
176, -187500.02, -187500.02, -99760.30, -187500.02, -187500.02, -187500.02, -20539.38, -45725.90, -0.02, 0.92, 0.39
177, -187500.02, -187500.02, -98858.19, -187500.02, -187500.02, -187500.02, -19909.84, -45042.92, 0.00, 0.00, 0.00
178, -187500.02, -187500.02, -101609.53, -187500.02, -187500.02, -187500.02, -22961.99, -49975.93, 0.00, 0.00, 0.00
179, -187500.02, -187500.02, -104032.64, -187500.02, -187500.02, -187500.02, -28750.71, -61584.22, 0.00, 0.00, 0.00
180, -187500.02, -187500.02, -103481.78, -187500.02, -187500.02, -187500.02, -33204.72, -68171.05, 0.00, 0.00, 0.00
181, -187500.02, -187500.02, -103204.86, -187500.02, -187500.02, -187500.02, -37228.26, -71103.27, 0.00, 0.00, 0.00
182, -187500.02, -187500.02, -105586.46, -187500.02, -187500.02, -187500.02, -41683.30, -72206.08, 0.00, 0.00, 0.00
183, -187500.02, -187500.02, -107215.32, -187500.02, -187500.02, -187500.02, -44082.24, -73011.88, 0.00, 0.00, 0.00
184, -187500.02, -187500.02, -106097.83, -187500.02, -187500.02, -187500.02, -44172.54, -73623.58, 0.00, 0.00, 0.00
185, -187500.02, -187500.02, -104975.27, -187500.02, -187500.02, -187500.02, -44793.21, -74754.94, 0.00, 0.00, 0.00
186, -187500.02, -187500.02, -106727.88, -187500.02, -187500.02, -187500.02, -47284.76, -75153.94, -0.02, 0.91, 0.39
187, -187500.02, -187500.02, -108555.29, -187500.02, -187500.02, -187500.02, -48725.44, -75103.34, 0.00, 0.00, 0.00
188, -187500.02, -187500.02, -107699.80, -187500.02, -187500.02, -187500.02, -48078.22, -75416.77, 0.00, 0.00, 0.00
189, -187500.02, -187500.02, -106108.17, -187500.02, -187500.02, -187500.02, -47586.68, -75918.39, 0.00, 0.00, 0.00
190, -187500.02, -187500.02, -107307.68, -187500.02, -187500.02, -187500.02, -49302.71, -76426.00, 0.00, 0.00, 0.00
191, -187500.02, -187500.02, -109430.36, -187500.02, -187500.02, -187500.02, -51002.05, -77032.55, 0.00, 0.00, 0.00
192, -187500.02, -187500.02, -109192.25, -187500.02, -187500.02, -187500.02, -51024.07, -78463.65, 0.00, 0.00, 0.00
193, -187500.02, -187500.02, -107662.70, -187500.02, -187500.02, -187500.02, -51190.52, -80783.02, 0.00, 0.00, 0.00
194, -187500.02, -187500.02, -108534.63, -187500.02, -187500.02, -187500.02, -53585.18, -82477.17, 0.00, 0.00, 0.00
195, -187500.02, -187500.02, -110944.53, -187500.02, -187500.02, -187500.02, -56151.47, -83240.87, -0.02, 0.91, 0.39
196, -187500.02, -187500.02, -111168.34, -187500.02, -187500.02, -187500.02, -56488.80, -83756.84, 0.00, 0.00, 0.00
197, -187500.02, -187500.02, -109438.20, -187500.02, -187500.02, -187500.02, -55758.23, -84162.34, 0.00, 0.00, 0.00
198, -187500.02, -187500.02, -109522.36, -187500.02, -187500.02, -187500.02, -56657.91, -84349.05, 0.00, 0.00, 0.00
199, -187500.02, -187500.02, -111830.02, -187500.02, -187500.02, -187500.02, -58514.34, -84354.68, 0.00, 0.00, 0.00
200, -187500.02, -187500.02, -112445.74, -187500.02, -187500.02, -187500.02, -58561.17, -84453.72, 0.00, 0.00, 0.00
201, -187500.02, -187500.02, -110717.09, -187500.02, -187500.02, -187500.02, -57338.10, -84680.12, 0.00, 0.00, 0.00
202, -187500.02, -187500.02, -110155.07, -187500.02, -187500.02, -187500.02, -57523.26, -84803.05, 0.00, 0.00, 0.00
203, -187500.02, -187500.02, -112252.49, -187500.02, -187500.02, -187500.02, -59220.52, -84755.09, 0.00, 0.00, 0.00
204, -187500.02, -187500.02, -113295.91, -187500.02, -187500.02, -187500.02, -59498.04, -84795.72, 0.00, 0.00, 0.00
205, -187500.02, -187500.02, -111789.70, -187500.02, -187500.02, -187500.02, -58241.20, -85006.66, -0.02, 0.91, 0.39
206, -187500.02, -187500.02, -110739.30, -187500.02, -187500.02, -187500.02, -57965.18, -85134.39, 0.00, 0.00, 0.00
207, -187500.02, -187500.02, -112571.36, -187500.02, -187500.02, -187500.02, -59551.57, -85053.93, 0.00, 0.00, 0.00
208, -187500.02, -187500.02, -113972.55, -187500.02, -187500.02, -187500.02, -60087.01, -85042.23, 0.00, 0.00, 0.00
209, -187500.02, -187500.02, -112713.25, -187500.02, -187500.02, -187500.02, -58858.58, -85199.02, 0.00, 0.00, 0.00
210, -187500.02, -187500.02, -111280.66, -187500.02, -187500.02, -187500.02, -58204.66, -85342.42, 0.00, 0.00, 0.00
211, -187500.02, -187500.02, -112736.07, -187500.02, -187500.02, -187500.02, -59598.24, -85248.68, 0.00, 0.00, 0.00
212, -187500.02, -187500.02, -114524.05, -187500.02, -187500.02, -187500.02, -60461.80, -85169.91, 0.00, 0.00, 0.00
213, -187500.02, -187500.02, -113699.90, -187500.02, -187500.02, -187500.02, -59415.18, -85290.48, 0.00, 0.00, 0.00
214, -187500.02, -187500.02, -111941.69, -187500.02, -187500.02, -187500.02, -58393.06, -85446.11, 0.00, 0.00, 0.00
215, -187500.02, -187500.02, -112912.94, -187500.02, -187500.02, -187500.02, -59518.29, -85397.38, -0.02, 0.91, 0.39
216, -187500.02, -187500.02, -114953.50, -187500.02, -187500.02, -187500.02, -60664.78, -85265.40, 0.00, 0.00, 0.00
217, -187500.02, -187500.02, -114591.38, -187500.02, -187500.02, -187500.02, -59861.37, -85319.47, 0.00, 0.00, 0.00
218, -187500.02, -187500.02, -112689.11, -187500.02, -187500.02, -187500.02, -58595.45, -85495.11, 0.00, 0.00, 0.00
219, -187500.02, -187500.02, -113046.34, -187500.02, -187500.02, -187500.02, -59322.51, -85462.96, 0.00, 0.00, 0.00
220, -187500.02, -187500.02, -115187.43, -187500.02, -187500.02, -187500.02, -60695.18, -85354.94, 0.00, 0.00, 0.00
221, -187500.02, -187500.02, -115273.35, -187500.02, -187500.02, -187500.02, -60189.47, -85390.95, 0.00, 0.00, 0.00
222, -187500.02, -187500.02, -113364.34, -187500.02, -187500.02, -187500.02, -58809.98, -85539.77, 0.00, 0.00, 0.00
223, -187500.02, -187500.02, -113170.72, -187500.02, -187500.02, -187500.02, -59170.23, -85560.73, 0.00, 0.00, 0.00
224, -187500.02, -187500.02, -115322.55, -187500.02, -187500.02, -187500.02, -60682.50, -85400.67, 0.00, 0.00, 0.00
225, -187500.02, -187500.02, -115915.88, -187500.02, -187500.02, -187500.02, -60522.11, -85416.00, -0.02, 0.91, 0.39
226, -187500.02, -187500.02, -114121.66, -187500.02, -187500.02, -187500.02, -59087.68, -85598.10, 0.00, 0.00, 0.00
227, -187500.02, -187500.02, -113364.11, -187500.02, -187500.02, -187500.02, -59016.02, -85636.10, 0.00, 0.00, 0.00
228, -187500.02, -187500.02, -115360.16, -187500.02, -187500.02, -187500.02, -60576.13, -85501.45, 0.00, 0.00, 0.00
229, -187500.02, -187500.02, -116435.10, -187500.02, -187500.02, -187500.02, -60792.29, -85463.57, 0.00, 0.00, 0.00
230, -187500.02, -187500.02, -114917.04, -187500.02, -187500.02, -187500.02, -59418.55, -85604.67, 0.00, 0.00, 0.00
231, -187500.02, -187500.02, -113699.01, -187500.02, -187500.02, -187500.02, -58949.44, -85704.34, 0.00, 0.00, 0.00
232, -187500.02, -187500.02, -115393.02, -187500.02, -187500.02, -187500.02, -60422.55, -85601.08, 0.00, 0.00, 0.00
233, -187500.02, -187500.02, -116859.95, -187500.02, -187500.02, -187500.02, -60985.41, -85503.49, 0.00, 0.00, 0.00
234, -187500.02, -187500.02, -115690.41, -187500.02, -187500.02, -187500.02, -59763.33, -85626.87, 0.00, 0.00, 0.00
235, -187500.02, -187500.02, -114093.27, -187500.02, -187500.02, -187500.02, -58933.66, -85753.72, -0.02, 0.91, 0.39
236, -187500.02, -187500.02, -115373.15, -187500.02, -187500.02, -187500.02, -60206.90, -85614.89, 0.00, 0.00, 0.00
237, -187500.02, -187500.02, -117172.22, -187500.02, -187500.02, -187500.02, -61095.56, -85513.68, 0.00, 0.00, 0.00
238, -187500.02, -187500.02, -116401.60, -187500.02, -187500.02, -187500.02, -60060.50, -85599.09, 0.00, 0.00, 0.00
239, -187500.02, -187500.02, -114555.55, -187500.02, -187500.02, -187500.02, -58945.13, -85742.05, 0.00, 0.00, 0.00
240, -187500.02, -187500.02, -115346.89, -187500.02, -187500.02, -187500.02, -59962.02, -85679.22, 0.00, 0.00, 0.00
241, -187500.02, -187500.02, -117410.73, -187500.02, -187500.02, -187500.02, -61162.24, -85533.84, 0.00, 0.00, 0.00
242, -187500.02, -187500.02, -117121.73, -187500.02, -187500.02, -187500.02, -60400.04, -85616.37, 0.00, 0.00, 0.00
243, -187500.02, -187500.02, -115118.56, -187500.02, -187500.02, -187500.02, -59054.25, -85793.84, 0.00, 0.00, 0.00
244, -187500.02, -187500.02, -115288.75, -187500.02, -187500.02, -187500.02, -59695.20, -85750.48, 0.00, 0.00, 0.00
245, -187500.02, -187500.02, -117435.97, -187500.02, -187500.02, -187500.02, -61112.44, -85570.68, -0.03, 0.91, 0.39
246, -187500.02, -187500.02, -117672.77, -187500.02, -187500.02, -187500.02, -60698.75, -85586.15, 0.00, 0.00, 0.00
247, -187500.02, -187500.02, -115712.92, -187500.02, -187500.02, -187500.02, -59221.48, -85741.09, 0.00, 0.00, 0.00
248, -187500.02, -187500.02, -115341.95, -187500.02, -187500.02, -187500.02, -59441.42, -85745.52, 0.00, 0.00, 0.00
249, -187500.02, -187500.02, -117422.90, -187500.02, -187500.02, -187500.02, -60950.77, -85595.76, 0.00, 0.00, 0.00
250, -187500.02, -187500.02, -118106.23, -187500.02, -187500.02, -187500.02, -60877.57, -85535.18, 0.00, 0.00, 0.00
251, -187500.02, -187500.02, -116324.30, -187500.02, -187500.02, -187500.02, -59417.48, -85700.90, 0.00, 0.00, 0.00
252, -187500.02, -187500.02, -115429.45, -187500.02, -187500.02, -187500.02, -59243.50, -85783.96, 0.00, 0.00, 0.00
253, -187500.02, -187500.02, -117359.87, -187500.02, -187500.02, -187500.02, -60789.28, -85604.20, 0.00, 0.00, 0.00
254, -187500.02, -187500.02, -118509.46, -187500.02, -187500.02, -187500.02, -61062.75, -85544.95, 0.00, 0.00, 0.00
255, -187500.02, -187500.02, -116997.45, -187500.02, -187500.02, -187500.02, -59669.93, -85685.09, -0.02, 0.91, 0.39
0, -187500.02, -187500.02, -115634.48, -187500.02, -187500.02, -187500.02, -59090.37, -85759.48, 0.00, 0.00, 0.00
1, -187500.02, -187500.02, -117237.55, -187500.02, -187500.02, -187500.02, -60529.33, -85654.25, 0.00, 0.00, 0.00
2, -187500.02, -187500.02, -118794.04, -187500.02, -187500.02, -187500.02, -61180.63, -85593.97, 0.00, 0.00, 0.00
3, -187500.02, -187500.02, -117641.85, -187500.02, -187500.02, -187500.02, -59962.91, -85683.17, 0.00, 0.00, 0.00
4, -187500.02, -187500.02, -115916.16, -187500.02, -187500.02, -187500.02, -59049.37, -85761.63, 0.00, 0.00, 0.00
5, -187500.02, -187500.02, -117024.72, -187500.02, -187500.02, -187500.02, -60254.38, -85684.11, 0.00, 0.00, 0.00
6, -187500.02, -187500.02, -118824.95, -187500.02, -187500.02, -187500.02, -61214.00, -85599.49, 0.00, 0.00, 0.00
7, -187500.02, -187500.02, -118142.78, -187500.02, -187500.02, -187500.02, -60280.29, -85714.82, 0.00, 0.00, 0.00
8, -187500.02, -187500.02, -116201.10, -187500.02, -187500.02, -187500.02, -59118.89, -85849.20, 0.00, 0.00, 0.00
9, -187500.02, -187500.02, -116789.78, -187500.02, -187500.02, -187500.02, -60013.83, -85762.84, -0.02, 0.91, 0.38
10, -187500.02, -187500.02, -118837.05, -187500.02, -187500.02, -187500.02, -61241.34, -85592.67, 0.00, 0.00, 0.00
11, -187500.02, -187500.02, -118627.74, -187500.02, -187500.02, -187500.02, -60552.57, -85618.73, 0.00, 0.00, 0.00
12, -187500.02, -187500.02, -116610.74, -187500.02, -187500.02, -187500.02, -59177.05, -85813.93, 0.00, 0.00, 0.00
13, -187500.02, -187500.02, -116631.94, -187500.02, -187500.02, -187500.02, -59724.80, -85829.34, 0.00, 0.00, 0.00
14, -187500.02, -187500.02, -118760.98, -187500.02, -187500.02, -187500.02, -61174.64, -85634.89, 0.00, 0.00, 0.00
15, -187500.02, -187500.02, -119074.78, -187500.02, -187500.02, -187500.02, -60817.53, -85583.40, 0.00, 0.00, 0.00
16, -187500.02, -187500.02, -117148.87, -187500.02, -187500.02, -187500.02, -59351.84, -85738.88, 0.00, 0.00, 0.00
17, -187500.02, -187500.02, -116612.71, -187500.02, -187500.02, -187500.02, -59467.24, -85778.15, 0.00, 0.00, 0.00
18, -187500.02, -187500.02, -118632.66, -187500.02, -187500.02, -187500.02, -60991.36, -85631.01, 0.00, 0.00, 0.00
19, -187500.02, -187500.02, -119425.16, -187500.02, -187500.02, -187500.02, -61017.29, -85604.88, -0.03, 0.92, 0.39
20, -187500.02, -187500.02, -117714.14, -187500.02, -187500.02, -187500.02, -59590.26, -85758.48, 0.00, 0.00, 0.00
21, -187500.02, -187500.02, -116651.38, -187500.02, -187500.02, -187500.02, -59294.06, -85842.27, 0.00, 0.00, 0.00
22, -187500.02, -187500.02, -118446.52, -187500.02, -187500.02, -187500.02, -60803.52, -85699.20, 0.00, 0.00, 0.00
23, -187500.02, -187500.02, -119671.75, -187500.02, -187500.02, -187500.02, -61175.80, -85595.20, 0.00, 0.00, 0.00
24, -187500.02, -187500.02, -118273.63, -187500.02, -187500.02, -187500.02, -59853.45, -85714.94, 0.00, 0.00, 0.00
25, -187500.02, -187500.02, -116806.55, -187500.02, -187500.02, -187500.02, -59179.57, -85820.75, 0.00, 0.00, 0.00
26, -187500.02, -187500.02, -118275.95, -187500.02, -187500.02, -187500.02, -60563.21, -85702.20, 0.00, 0.00, 0.00
27, -187500.02, -187500.02, -119884.72, -187500.02, -187500.02, -187500.02, -61287.21, -85613.93, 0.00, 0.00, 0.00
28, -187500.02, -187500.02, -118846.63, -187500.02, -187500.02, -187500.02, -60129.19, -85720.52, -0.03, 0.91, 0.39
29, -187500.02, -187500.02, -117052.64, -187500.02, -187500.02, -187500.02, -59133.95, -85855.88, 0.00, 0.00, 0.00
30, -187500.02, -187500.02, -118054.91, -187500.02, -187500.02, -187500.02, -60299.57, -85787.94, 0.00, 0.00, 0.00
31, -187500.02, -187500.02, -119942.23, -187500.02, -187500.02, -187500.02, -61342.62, -85672.09, 0.00, 0.00, 0.00
32, -187500.02, -187500.02, -119364.73, -187500.02, -187500.02, -187500.02, -60427.47, -85692.70, 0.00, 0.00, 0.00
33, -187500.02, -187500.02, -117412.46, -187500.02, -187500.02, -187500.02, -59187.93, -85830.41, 0.00, 0.00, 0.00
34, -187500.02, -187500.02, -117845.59, -187500.02, -187500.02, -187500.02, -59982.34, -85744.24, 0.00, 0.00, 0.00
35, -187500.02, -187500.02, -119814.78, -187500.02, -187500.02, -187500.02, -61066.84, -85003.39, 0.00, 0.00, 0.00
36, -187500.02, -187500.02, -119201.98, -187500.02, -187500.02, -187500.02, -58794.23, -80934.52, 0.00, 0.00, 0.00
37, -187500.02, -187500.02, -116381.44, -187500.02, -187500.02, -187500.02, -54115.00, -75696.13, 0.00, 0.00, 0.00
38, -187500.02, -187500.02, -115563.90, -187500.02, -187500.02, -187500.02, -51358.74, -72283.39, -0.02, 0.91, 0.40
39, -187500.02, -187500.02, -117047.27, -187500.02, -187500.02, -187500.02, -50147.52, -69890.82, 0.00, 0.00, 0.00
40, -187500.02, -187500.02, -116938.53, -187500.02, -187500.02, -187500.02, -47736.89, -68343.77, 0.00, 0.00, 0.00
41, -187500.02, -187500.02, -114558.90, -187500.02, -187500.02, -187500.02, -44540.57, -67309.55, 0.00, 0.00, 0.00
42, -187500.02, -187500.02, -113426.36, -187500.02, -187500.02, -187500.02, -43030.35, -66061.92, 0.00, 0.00, 0.00
43, -187500.02, -187500.02, -114969.75, -187500.02, -187500.02, -187500.02, -43049.77, -64355.27, 0.00, 0.00, 0.00
44, -187500.02, -187500.02, -115382.52, -187500.02, -187500.02, -187500.02, -41515.52, -62448.78, 0.00, 0.00, 0.00
45, -187500.02, -187500.02, -113130.16, -187500.02, -187500.02, -187500.02, -38188.65, -60366.11, 0.00, 0.00, 0.00
46, -187500.02, -187500.02, -111336.96, -187500.02, -187500.02, -187500.02, -35809.19, -58313.49, 0.00, 0.00, 0.00
47, -187500.02, -187500.02, -112537.37, -187500.02, -187500.02, -187500.02, -35419.76, -56282.61, 0.00, 0.00, 0.00
48, -187500.02, -187500.02, -113361.70, -187500.02, -187500.02, -187500.02, -34170.07, -54793.51, -0.02, 0.91, 0.40
49, -187500.02, -187500.02, -111494.43, -187500.02, -187500.02, -187500.02, -31415.15, -53950.83, 0.00, 0.00, 0.00
50, -187500.02, -187500.02, -109410.96, -187500.02, -187500.02, -187500.02, -29454.26, -53169.57, 0.00, 0.00, 0.00
51, -187500.02, -187500.02, -110367.12, -187500.02, -187500.02, -187500.02, -29712.55, -51999.01, 0.00, 0.00, 0.00
52, -187500.02, -187500.02, -111684.09, -187500.02, -187500.02, -187500.02, -29499.99, -51054.89, 0.00, 0.00, 0.00
53, -187500.02, -187500.02, -110321.30, -187500.02, -187500.02, -187500.02, -27493.96, -50636.40, 0.00, 0.00, 0.00
54, -187500.02, -187500.02, -108004.77, -187500.02, -187500.02, -187500.02, -25696.28, -50368.52, 0.00, 0.00, 0.00
55, -187500.02, -187500.02, -108560.99, -187500.02, -187500.02, -187500.02, -26204.09, -49758.91, 0.00, 0.00, 0.00
56, -187500.02, -187500.02, -110254.91, -187500.02, -187500.02, -187500.02, -26803.70, -49230.90, 0.00, 0.00, 0.00
57, -187500.02, -187500.02, -109488.72, -187500.02, -187500.02, -187500.02, -25525.40, -49123.03, 0.00, 0.00, 0.00
58, -187500.02, -187500.02, -107093.69, -187500.02, -187500.02, -187500.02, -23854.43, -49269.81, -0.02, 0.91, 0.39
59, -187500.02, -187500.02, -107126.23, -187500.02, -187500.02, -187500.02, -24372.90, -49045.54, 0.00, 0.00, 0.00
60, -187500.02, -187500.02, -109058.25, -187500.02, -187500.02, -187500.02, -25528.87, -48666.16, 0.00, 0.00, 0.00
61, -187500.02, -187500.02, -108848.03, -187500.02, -187500.02, -187500.02, -24786.83, -48664.64, 0.00, 0.00, 0.00
62, -187500.02, -187500.02, -106525.88, -187500.02, -187500.02, -187500.02, -23193.82, -48875.39, 0.00, 0.00, 0.00
63, -187500.02, -187500.02, -105968.12, -187500.02, -187500.02, -187500.02, -23413.21, -48739.09, 0.00, 0.00, 0.00
64, -187500.02, -187500.02, -107976.29, -187500.02, -187500.02, -187500.02, -24871.72, -48473.46, 0.00, 0.00, 0.00
65, -187500.02, -187500.02, -108405.29, -187500.02, -187500.02, -187500.02, -24755.70, -48868.38, 0.00, 0.00, 0.00
66, -187500.02, -187500.02, -106313.95, -187500.02, -187500.02, -187500.02, -23470.72, -49619.55, 0.00, 0.00, 0.00
67, -187500.02, -187500.02, -105307.24, -187500.02, -187500.02, -187500.02, -23675.46, -50074.07, 0.00, 0.00, 0.00
68, -187500.02, -187500.02, -107247.66, -187500.02, -187500.02, -187500.02, -25557.79, -50112.92, -0.03, 0.91, 0.39
69, -187500.02, -187500.02, -108245.92, -187500.02, -187500.02, -187500.02, -26068.66, -50515.81, 0.00, 0.00, 0.00
70, -187500.02, -187500.02, -106523.80, -187500.02, -187500.02, -187500.02, -25053.44, -51428.21, 0.00, 0.00, 0.00
71, -187500.02, -187500.02, -105129.51, -187500.02, -187500.02, -187500.02, -25141.17, -52313.86, 0.00, 0.00, 0.00
72, -187500.02, -187500.02, -106781.86, -187500.02, -187500.02, -187500.02, -27087.41, -52263.76, 0.00, 0.00, 0.00
73, -187500.02, -187500.02, -108118.47, -187500.02, -187500.02, -187500.02, -27704.14, -51754.95, 0.00, 0.00, 0.00
74, -187500.02, -187500.02, -106521.26, -187500.02, -187500.02, -187500.02, -26007.35, -50911.21, 0.00, 0.00, 0.00
75, -187500.02, -187500.02, -104318.65, -187500.02, -187500.02, -187500.02, -24227.30, -49440.92, 0.00, 0.00, 0.00
76, -187500.02, -187500.02, -105225.93, -187500.02, -187500.02, -187500.02, -24519.33, -47847.08, 0.00, 0.00, 0.00
77, -187500.02, -187500.02, -106721.82, -187500.02, -187500.02, -187500.02, -24432.38, -46658.28, 0.00, 0.00, 0.00
78, -187500.02, -187500.02, -105517.73, -187500.02, -187500.02, -187500.02, -22478.84, -46122.51, -0.03, 0.92, 0.39
79, -187500.02, -187500.02, -103074.71, -187500.02, -187500.02, -187500.02, -20561.48, -45883.70, 0.00, 0.00, 0.00
80, -187500.02, -187500.02, -103619.51, -187500.02, -187500.02, -187500.02, -21116.79, -45150.54, 0.00, 0.00, 0.00
81, -187500.02, -187500.02, -105522.85, -187500.02, -187500.02, -187500.02, -21799.23, -44447.31, 0.00, 0.00, 0.00
82, -187500.02, -187500.02, -104918.95, -187500.02, -187500.02, -187500.02, -20582.02, -44429.43, 0.00, 0.00, 0.00
83, -187500.02, -187500.02, -102421.45, -187500.02, -187500.02, -187500.02, -18805.68, -44555.54, 0.00, 0.00, 0.00
84, -187500.02, -187500.02, -102549.71, -187500.02, -187500.02, -187500.02, -19834.33, -46047.36, 0.00, 0.00, 0.00
85, -187500.02, -187500.02, -105916.42, -187500.02, -187500.02, -187500.02, -24946.13, -54411.32, 0.00, 0.00, 0.00
86, -187500.02, -187500.02, -107700.78, -187500.02, -187500.02, -187500.02, -31096.62, -65175.27, 0.00, 0.00, 0.00
87, -187500.02, -187500.02, -106904.12, -187500.02, -187500.02, -187500.02, -35919.68, -71870.98, 0.00, 0.00, 0.00
88, -187500.02, -187500.02, -107310.99, -187500.02, -187500.02, -187500.02, -40842.36, -74959.26, -0.03, 0.92, 0.39
89, -187500.02, -187500.02, -109947.16, -187500.02, -187500.02, -187500.02, -45601.00, -76340.62, 0.00, 0.00, 0.00
90, -187500.02, -187500.02, -111043.40, -187500.02, -187500.02, -187500.02, -47838.34, -77375.27, 0.00, 0.00, 0.00
91, -187500.02, -187500.02, -109633.85, -187500.02, -187500.02, -187500.02, -48135.33, -78311.62, 0.00, 0.00, 0.00
92, -187500.02, -187500.02, -109006.81, -187500.02, -187500.02, -187500.02, -49258.46, -78963.84, 0.00, 0.00, 0.00
93, -187500.02, -187500.02, -111126.32, -187500.02, -187500.02, -187500.02, -51807.00, -79356.13, 0.00, 0.00, 0.00
94, -187500.02, -187500.02, -112497.80, -187500.02, -187500.02, -187500.02, -53020.86, -79923.38, 0.00, 0.00, 0.00
95, -187500.02, -187500.02, -111236.83, -187500.02, -187500.02, -187500.02, -52476.33, -80554.86, 0.00, 0.00, 0.00
96, -187500.02, -187500.02, -110062.29, -187500.02, -187500.02, -187500.02, -52517.97, -80836.63, 0.00, 0.00, 0.00
97, -187500.02, -187500.02, -111768.91, -187500.02, -187500.02, -187500.02, -54367.42, -80856.77, 0.00, 0.00, 0.00
98, -187500.02, -187500.02, -113413.30, -187500.02, -187500.02, -187500.02, -55397.25, -81020.71, -0.03, 0.92, 0.39
99, -187500.02, -187500.02, -112381.69, -187500.02, -187500.02, -187500.02, -54499.45, -81263.14, 0.00, 0.00, 0.00
100, -187500.02, -187500.02, -110792.25, -187500.02, -187500.02, -187500.02, -53911.22, -81626.71, 0.00, 0.00, 0.00
101, -187500.02, -187500.02, -112030.45, -187500.02, -187500.02, -187500.02, -55412.07, -81707.41, 0.00, 0.00, 0.00
102, -187500.02, -187500.02, -113976.95, -187500.02, -187500.02, -187500.02, -56640.93, -81789.99, 0.00, 0.00, 0.00
103, -187500.02, -187500.02, -113408.77, -187500.02, -187500.02, -187500.02, -55918.88, -82049.30, 0.00, 0.00, 0.00
104, -187500.02, -187500.02, -111572.95, -187500.02, -187500.02, -187500.02, -54944.77, -82339.89, 0.00, 0.00, 0.00
105, -187500.02, -187500.02, -112262.64, -187500.02, -187500.02, -187500.02, -56014.05, -82311.34, 0.00, 0.00, 0.00
106, -187500.02, -187500.02, -114388.55, -187500.02, -187500.02, -187500.02, -57379.59, -82252.05, 0.00, 0.00, 0.00
107, -187500.02, -187500.02, -114286.12, -187500.02, -187500.02, -187500.02, -56835.41, -82368.27, 0.00, 0.00, 0.00
108, -187500.02, -187500.02, -112369.05, -187500.02, -187500.02, -187500.02, -55587.16, -82597.60, -0.03, 0.92, 0.39
109, -187500.02, -187500.02, -112460.43, -187500.02, -187500.02, -187500.02, -56223.80, -82662.23, 0.00, 0.00, 0.00
110, -187500.02, -187500.02, -114635.41, -187500.02, -187500.02, -187500.02, -57766.90, -82653.82, 0.00, 0.00, 0.00
111, -187500.02, -187500.02, -115001.60, -187500.02, -187500.02, -187500.02, -57530.08, -82727.88, 0.00, 0.00, 0.00
112, -187500.02, -187500.02, -113147.74, -187500.02, -187500.02, -187500.02, -56167.99, -82841.44, 0.00, 0.00, 0.00
113, -187500.02, -187500.02, -112716.98, -187500.02, -187500.02, -187500.02, -56405.16, -82963.99, 0.00, 0.00, 0.00
114, -187500.02, -187500.02, -114845.67, -187500.02, -187500.02, -187500.02, -58081.61, -83088.67, 0.00, 0.00, 0.00
115, -187500.02, -187500.02, -115743.07, -187500.02, -187500.02, -187500.02, -58296.12, -83330.63, 0.00, 0.00, 0.00
116, -187500.02, -187500.02, -114107.40, -187500.02, -187500.02, -187500.02, -57058.21, -83633.92, 0.00, 0.00, 0.00
117, -187500.02, -187500.02, -113078.52, -187500.02, -187500.02, -187500.02, -56773.23, -83363.38, -0.03, 0.91, 0.39
118, -187500.02, -187500.02, -114756.24, -187500.02, -187500.02, -187500.02, -57719.09, -81748.51, 0.00, 0.00, 0.00
119, -187500.02, -187500.02, -115614.44, -187500.02, -187500.02, -187500.02, -56582.12, -78717.90, 0.00, 0.00, 0.00
120, -187500.02, -187500.02, -113604.97, -187500.02, -187500.02, -187500.02, -52770.81, -74768.64, 0.00, 0.00, 0.00
121, -187500.02, -187500.02, -111337.88, -187500.02, -187500.02, -187500.02, -48829.66, -70355.82, 0.00, 0.00, 0.00
122, -187500.02, -187500.02, -112006.45, -187500.02, -187500.02, -187500.02, -46791.07, -66329.42, 0.00, 0.00, 0.00
123, -187500.02, -187500.02, -112947.25, -187500.02, -187500.02, -187500.02, -44391.93, -63201.97, 0.00, 0.00, 0.00
124, -187500.02, -187500.02, -111346.59, -187500.02, -187500.02, -187500.02, -40637.14, -61307.19, 0.00, 0.00, 0.00
125, -187500.02, -187500.02, -108975.30, -187500.02, -187500.02, -187500.02, -37474.75, -59881.04, 0.00, 0.00, 0.00
126, -187500.02, -187500.02, -109480.49, -187500.02, -187500.02, -187500.02, -36769.11, -58218.67, 0.00, 0.00, 0.00
127, -187500.02, -187500.02, -111009.64, -187500.02, -187500.02, -187500.02, -36286.54, -57034.95, -0.03, 0.92, 0.40
128, -187500.02, -187500.02, -110083.05, -187500.02, -187500.02, -187500.02, -34202.73, -56556.48, 0.00, 0.00, 0.00
129, -187500.02, -187500.02, -107734.31, -187500.02, -187500.02, -187500.02, -32053.12, -56349.44, 0.00, 0.00, 0.00
130, -187500.02, -187500.02, -107860.17, -187500.02, -187500.02, -187500.02, -32111.74, -55690.46, 0.00, 0.00, 0.00
131, -187500.02, -187500.02, -109725.63, -187500.02, -187500.02, -187500.02, -32743.67, -54967.16, 0.00, 0.00, 0.00
132, -187500.02, -187500.02, -109414.47, -187500.02, -187500.02, -187500.02, -31618.80, -54973.46, 0.00, 0.00, 0.00
133, -187500.02, -187500.02, -107161.50, -187500.02, -187500.02, -187500.02, -30040.19, -55617.22, 0.00, 0.00, 0.00
134, -187500.02, -187500.02, -106920.84, -187500.02, -187500.02, -187500.02, -30569.76, -55955.67, 0.00, 0.00, 0.00
135, -187500.02, -187500.02, -108996.52, -187500.02, -187500.02, -187500.02, -32209.29, -56104.71, 0.00, 0.00, 0.00
136, -187500.02, -187500.02, -109415.61, -187500.02, -187500.02, -187500.02, -32324.96, -56963.91, 0.00, 0.00, 0.00
137, -187500.02, -187500.02, -107465.55, -187500.02, -187500.02, -187500.02, -31403.08, -58057.63, -0.02, 0.91, 0.39
138, -187500.02, -187500.02, -106839.59, -187500.02, -187500.02, -187500.02, -32209.00, -59354.63, 0.00, 0.00, 0.00
139, -187500.02, -187500.02, -109054.42, -187500.02, -187500.02, -187500.02, -34824.24, -60596.14, 0.00, 0.00, 0.00
140, -187500.02, -187500.02, -110185.31, -187500.02, -187500.02, -187500.02, -36176.10, -62323.30, 0.00, 0.00, 0.00
141, -187500.02, -187500.02, -108743.49, -187500.02, -187500.02, -187500.02, -36297.58, -64721.13, 0.00, 0.00, 0.00
142, -187500.02, -187500.02, -107933.02, -187500.02, -187500.02, -187500.02, -37986.27, -67794.65, 0.00, 0.00, 0.00
143, -187500.02, -187500.02, -110259.79, -187500.02, -187500.02, -187500.02, -42130.94, -71061.47, 0.00, 0.00, 0.00
144, -187500.02, -187500.02, -112132.71, -187500.02, -187500.02, -187500.02, -45191.14, -73717.15, 0.00, 0.00, 0.00
145, -187500.02, -187500.02, -111388.66, -187500.02, -187500.02, -187500.02, -46682.98, -77315.89, 0.00, 0.00, 0.00
146, -187500.02, -187500.02, -110444.01, -187500.02, -187500.02, -187500.02, -48914.11, -80623.43, 0.00, 0.00, 0.00
147, -187500.02, -187500.02, -112251.55, -187500.02, -187500.02, -187500.02, -52628.25, -82225.67, -0.03, 0.91, 0.40
148, -187500.02, -187500.02, -114285.20, -187500.02, -187500.02, -187500.02, -55250.52, -83225.96, 0.00, 0.00, 0.00
149, -187500.02, -187500.02, -113659.04, -187500.02, -187500.02, -187500.02, -55462.23, -83834.26, 0.00, 0.00, 0.00
150, -187500.02, -187500.02, -112026.11, -187500.02, -187500.02, -187500.02, -55311.25, -84289.66, 0.00, 0.00, 0.00
151, -187500.02, -187500.02, -113055.74, -187500.02, -187500.02, -187500.02, -57056.04, -84456.55, 0.00, 0.00, 0.00
152, -187500.02, -187500.02, -115147.17, -187500.02, -187500.02, -187500.02, -58665.71, -84504.77, 0.00, 0.00, 0.00
153, -187500.02, -187500.02, -114823.16, -187500.02, -187500.02, -187500.02, -58222.80, -84681.50, 0.00, 0.00, 0.00
154, -187500.02, -187500.02, -112984.51, -187500.02, -187500.02, -187500.02, -57273.19, -84933.12, 0.00, 0.00, 0.00
155, -187500.02, -187500.02, -113408.41, -187500.02, -187500.02, -187500.02, -58257.96, -84993.27, 0.00, 0.00, 0.00
156, -187500.02, -187500.02, -115581.45, -187500.02, -187500.02, -187500.02, -59800.73, -84943.47, 0.00, 0.00, 0.00
157, -187500.02, -187500.02, -115730.45, -187500.02, -187500.02, -187500.02, -59469.16, -85084.93, -0.03, 0.91, 0.39
158, -187500.02, -187500.02, -113844.77, -187500.02, -187500.02, -187500.02, -58209.77, -85317.88, 0.00, 0.00, 0.00
159, -187500.02, -187500.02, -113656.45, -187500.02, -187500.02, -187500.02, -58657.12, -85328.52, 0.00, 0.00, 0.00
160, -187500.02, -187500.02, -115798.08, -187500.02, -187500.02, -187500.02, -60247.02, -85216.73, 0.00, 0.00, 0.00
161, -187500.02, -187500.02, -116397.66, -187500.02, -187500.02, -187500.02, -60167.74, -85276.64, 0.00, 0.00, 0.00
162, -187500.02, -187500.02, -114590.84, -187500.02, -187500.02, -187500.02, -58788.04, -85462.05, 0.00, 0.00, 0.00
163, -187500.02, -187500.02, -113827.59, -187500.02, -187500.02, -187500.02, -58769.04, -85520.32, 0.00, 0.00, 0.00
164, -187500.02, -187500.02, -115814.78, -187500.02, -187500.02, -187500.02, -60368.59, -85413.05, 0.00, 0.00, 0.00
165, -187500.02, -187500.02, -116863.72, -187500.02, -187500.02, -187500.02, -60611.47, -85409.68, 0.00, 0.00, 0.00
166, -187500.02, -187500.02, -115343.16, -187500.02, -187500.02, -187500.02, -59291.62, -85570.59, 0.00, 0.00, 0.00
167, -187500.02, -187500.02, -114102.12, -187500.02, -187500.02, -187500.02, -58849.21, -85652.44, -0.03, 0.91, 0.39
168, -187500.02, -187500.02, -115762.59, -187500.02, -187500.02, -187500.02, -60336.90, -85563.50, 0.00, 0.00, 0.00
169, -187500.02, -187500.02, -117258.86, -187500.02, -187500.02, -187500.02, -60951.02, -85510.71, 0.00, 0.00, 0.00
170, -187500.02, -187500.02, -116058.63, -187500.02, -187500.02, -187500.02, -59712.04, -85632.91, 0.00, 0.00, 0.00
171, -187500.02, -187500.02, -114450.16, -187500.02, -187500.02, -187500.02, -58904.62, -85747.01, 0.00, 0.00, 0.00
172, -187500.02, -187500.02, -115691.87, -187500.02, -187500.02, -187500.02, -60197.54, -85668.13, 0.00, 0.00, 0.00
173, -187500.02, -187500.02, -117479.38, -187500.02, -187500.02, -187500.02, -61123.32, -85595.87, 0.00, 0.00, 0.00
174, -187500.02, -187500.02, -116707.82, -187500.02, -187500.02, -187500.02, -60121.07, -85703.45, 0.00, 0.00, 0.00
175, -187500.02, -187500.02, -114893.20, -187500.02, -187500.02, -187500.02, -59044.07, -85822.18, 0.00, 0.00, 0.00
176, -187500.02, -187500.02, -115671.03, -187500.02, -187500.02, -187500.02, -60047.11, -85745.73, 0.00, 0.00, 0.00
177, -187500.02, -187500.02, -117669.30, -187500.02, -187500.02, -187500.02, -61213.54, -85643.37, -0.03, 0.91, 0.39
178, -187500.02, -187500.02, -117352.27, -187500.02, -187500.02, -187500.02, -60463.75, -85721.48, 0.00, 0.00, 0.00
179, -187500.02, -187500.02, -115375.81, -187500.02, -187500.02, -187500.02, -59160.44, -85879.71, 0.00, 0.00, 0.00
180, -187500.02, -187500.02, -115569.73, -187500.02, -187500.02, -187500.02, -59821.94, -85859.98, 0.00, 0.00, 0.00
181, -187500.02, -187500.02, -117667.05, -187500.02, -187500.02, -187500.02, -61218.16, -85716.97, 0.00, 0.00, 0.00
182, -187500.02, -187500.02, -117831.62, -187500.02, -187500.02, -187500.02, -60780.31, -85701.44, 0.00, 0.00, 0.00
183, -187500.02, -187500.02, -115882.30, -187500.02, -187500.02, -187500.02, -59351.77, -85856.00, 0.00, 0.00, 0.00
184, -187500.02, -187500.02, -115500.69, -187500.02, -187500.02, -187500.02, -59600.43, -85896.25, 0.00, 0.00, 0.00
185, -187500.02, -187500.02, -117596.13, -187500.02, -187500.02, -187500.02, -61131.41, -85735.97, 0.00, 0.00, 0.00
186, -187500.02, -187500.02, -118266.02, -187500.02, -187500.02, -187500.02, -61042.99, -85711.83, 0.00, 0.00, 0.00
187, -187500.02, -187500.02, -116502.25, -187500.02, -187500.02, -187500.02, -59613.11, -85853.36, -0.03, 0.91, 0.39
188, -187500.02, -187500.02, -115613.52, -187500.02, -187500.02, -187500.02, -59445.04, -85919.90, 0.00, 0.00, 0.00
189, -187500.02, -187500.02, -117461.84, -187500.02, -187500.02, -187500.02, -60937.80, -85786.71, 0.00, 0.00, 0.00
190, -187500.02, -187500.02, -118583.73, -187500.02, -187500.02, -187500.02, -61224.82, -85721.10, 0.00, 0.00, 0.00
191, -187500.02, -187500.02, -117094.77, -187500.02, -187500.02, -187500.02, -59878.13, -85850.05, 0.00, 0.00, 0.00
192, -187500.02, -187500.02, -115742.42, -187500.02, -187500.02, -187500.02, -59330.56, -85952.34, 0.00, 0.00, 0.00
193, -187500.02, -187500.02, -117292.43, -187500.02, -187500.02, -187500.02, -60757.18, -85853.88, 0.00, 0.00, 0.00
194, -187500.02, -187500.02, -118803.50, -187500.02, -187500.02, -187500.02, -61404.06, -85791.54, 0.00, 0.00, 0.00
195, -187500.02, -187500.02, -117667.27, -187500.02, -187500.02, -187500.02, -60216.25, -85885.44, 0.00, 0.00, 0.00
196, -187500.02, -187500.02, -115915.49, -187500.02, -187500.02, -187500.02, -59287.53, -85988.25, 0.00, 0.00, 0.00
197, -187500.02, -187500.02, -117012.14, -187500.02, -187500.02, -187500.02, -60503.80, -85896.99, -0.03, 0.91, 0.39
198, -187500.02, -187500.02, -118816.86, -187500.02, -187500.02, -187500.02, -61457.89, -85759.80, 0.00, 0.00, 0.00
199, -187500.02, -187500.02, -118114.23, -187500.02, -187500.02, -187500.02, -60486.77, -85807.16, 0.00, 0.00, 0.00
200, -187500.02, -187500.02, -116190.16, -187500.02, -187500.02, -187500.02, -59323.81, -85953.45, 0.00, 0.00, 0.00
201, -187500.02, -187500.02, -116758.52, -187500.02, -187500.02, -187500.02, -60216.43, -85902.76, 0.00, 0.00, 0.00
202, -187500.02, -187500.02, -118817.65, -187500.02, -187500.02, -187500.02, -61455.98, -85780.12, 0.00, 0.00, 0.00
203, -187500.02, -187500.02, -118616.08, -187500.02, -187500.02, -187500.02, -60769.45, -85827.39, 0.00, 0.00, 0.00
204, -187500.02, -187500.02, -116618.93, -187500.02, -187500.02, -187500.02, -59414.64, -85951.55, 0.00, 0.00, 0.00
205, -187500.02, -187500.02, -116664.95, -187500.02, -187500.02, -187500.02, -59964.86, -85940.02, 0.00, 0.00, 0.00
206, -187500.02, -187500.02, -118771.29, -187500.02, -187500.02, -187500.02, -61385.71, -85797.93, -0.03, 0.91, 0.39
207, -187500.02, -187500.02, -119049.79, -187500.02, -187500.02, -187500.02, -61039.77, -85835.91, 0.00, 0.00, 0.00
208, -187500.02, -187500.02, -117100.65, -187500.02, -187500.02, -187500.02, -59604.30, -86004.88, 0.00, 0.00, 0.00
209, -187500.02, -187500.02, -116543.24, -187500.02, -187500.02, -187500.02, -59738.97, -86026.90, 0.00, 0.00, 0.00
210, -187500.02, -187500.02, -118542.27, -187500.02, -187500.02, -187500.02, -61247.55, -85831.91, 0.00, 0.00, 0.00
211, -187500.02, -187500.02, -119275.50, -187500.02, -187500.02, -187500.02, -61235.66, -85789.10, 0.00, 0.00, 0.00
212, -187500.02, -187500.02, -117528.28, -187500.02, -187500.02, -187500.02, -59821.22, -85913.38, 0.00, 0.00, 0.00
213, -187500.02, -187500.02, -116488.05, -187500.02, -187500.02, -187500.02, -59561.38, -85967.82, 0.00, 0.00, 0.00
214, -187500.02, -187500.02, -118289.56, -187500.02, -187500.02, -187500.02, -61070.62, -85844.80, 0.00, 0.00, 0.00
215, -187500.02, -187500.02, -119483.68, -187500.02, -187500.02, -187500.02, -61426.88, -85808.92, 0.00, 0.00, 0.00
216, -187500.02, -187500.02, -118033.50, -187500.02, -187500.02, -187500.02, -60091.57, -85928.20, -0.04, 0.91, 0.39
217, -187500.02, -187500.02, -116543.27, -187500.02, -187500.02, -187500.02, -59435.75, -86015.97, 0.00, 0.00, 0.00
218, -187500.02, -187500.02, -117987.10, -187500.02, -187500.02, -187500.02, -60816.68, -85907.83, 0.00, 0.00, 0.00
219, -187500.02, -187500.02, -119567.01, -187500.02, -187500.02, -187500.02, -61522.32, -85821.53, 0.00, 0.00, 0.00
220, -187500.02, -187500.02, -118533.78, -187500.02, -187500.02, -187500.02, -60376.24, -85880.96, 0.00, 0.00, 0.00
221, -187500.02, -187500.02, -116762.78, -187500.02, -187500.02, -187500.02, -59398.82, -85990.98, 0.00, 0.00, 0.00
222, -187500.02, -187500.02, -117750.59, -187500.02, -187500.02, -187500.02, -60529.66, -85906.52, 0.00, 0.00, 0.00
223, -187500.02, -187500.02, -119631.49, -187500.02, -187500.02, -187500.02, -61552.95, -85796.32, 0.00, 0.00, 0.00
224, -187500.02, -187500.02, -119055.31, -187500.02, -187500.02, -187500.02, -60643.90, -85870.91, 0.00, 0.00, 0.00
225, -187500.02, -187500.02, -117103.65, -187500.02, -187500.02, -187500.02, -59424.14, -86010.67, 0.00, 0.00, 0.00
226, -187500.02, -187500.02, -117546.41, -187500.02, -187500.02, -187500.02, -60239.54, -85953.83, -0.03, 0.91, 0.40
227, -187500.02, -187500.02, -119592.80, -187500.02, -187500.02, -187500.02, -61521.81, -85803.36, 0.00, 0.00, 0.00
228, -187500.02, -187500.02, -119500.71, -187500.02, -187500.02, -187500.02, -60918.70, -85852.20, 0.00, 0.00, 0.00
229, -187500.02, -187500.02, -117517.06, -187500.02, -187500.02, -187500.02, -59544.26, -86001.84, 0.00, 0.00, 0.00
230, -187500.02, -187500.02, -117389.73, -187500.02, -187500.02, -187500.02, -59966.42, -85985.33, 0.00, 0.00, 0.00
231, -187500.02, -187500.02, -119432.74, -187500.02, -187500.02, -187500.02, -61388.26, -85840.76, 0.00, 0.00, 0.00
232, -187500.02, -187500.02, -119809.08, -187500.02, -187500.02, -187500.02, -61114.72, -85830.00, 0.00, 0.00, 0.00
233, -187500.02, -187500.02, -117926.05, -187500.02, -187500.02, -187500.02, -59687.00, -85986.60, 0.00, 0.00, 0.00
234, -187500.02, -187500.02, -117246.98, -187500.02, -187500.02, -187500.02, -59717.64, -86041.54, 0.00, 0.00, 0.00
235, -187500.02, -187500.02, -119217.30, -187500.02, -187500.02, -187500.02, -61242.14, -85863.87, 0.00, 0.00, 0.00
236, -187500.02, -187500.02, -120108.41, -187500.02, -187500.02, -187500.02, -61344.00, -85808.91, -0.03, 0.91, 0.39
237, -187500.02, -187500.02, -118437.45, -187500.02, -187500.02, -187500.02, -59934.21, -85940.82, 0.00, 0.00, 0.00
238, -187500.02, -187500.02, -117291.42, -187500.02, -187500.02, -187500.02, -59564.69, -85994.47, 0.00, 0.00, 0.00
239, -187500.02, -187500.02, -119008.82, -187500.02, -187500.02, -187500.02, -61035.86, -85866.50, 0.00, 0.00, 0.00
240, -187500.02, -187500.02, -120331.75, -187500.02, -187500.02, -187500.02, -61496.75, -85816.97, 0.00, 0.00, 0.00
241, -187500.02, -187500.02, -118992.10, -187500.02, -187500.02, -187500.02, -60196.60, -85926.83, 0.00, 0.00, 0.00
242, -187500.02, -187500.02, -117418.59, -187500.02, -187500.02, -187500.02, -59444.33, -86029.36, 0.00, 0.00, 0.00
243, -187500.02, -187500.02, -118758.99, -187500.02, -187500.02, -187500.02, -60784.38, -85931.41, 0.00, 0.00, 0.00
244, -187500.02, -187500.02, -120427.04, -187500.02, -187500.02, -187500.02, -61583.77, -85838.67, 0.00, 0.00, 0.00
245, -187500.02, -187500.02, -119483.52, -187500.02, -187500.02, -187500.02, -60486.12, -85944.84, 0.00, 0.00, 0.00
246, -187500.02, -187500.02, -117605.87, -187500.02, -187500.02, -187500.02, -59427.74, -86061.86, -0.03, 0.91, 0.39
247, -187500.02, -187500.02, -118440.82, -187500.02, -187500.02, -187500.02, -60496.20, -85937.83, 0.00, 0.00, 0.00
248, -187500.02, -187500.02, -120368.12, -187500.02, -187500.02, -187500.02, -61602.59, -85805.17, 0.00, 0.00, 0.00
249, -187500.02, -187500.02, -119893.84, -187500.02, -187500.02, -187500.02, -60763.80, -85879.67, 0.00, 0.00, 0.00
250, -187500.02, -187500.02, -117881.40, -187500.02, -187500.02, -187500.02, -59472.54, -86022.88, 0.00, 0.00, 0.00
251, -187500.02, -187500.02, -118155.07, -187500.02, -187500.02, -187500.02, -60190.95, -85987.85, 0.00, 0.00, 0.00
252, -187500.02, -187500.02, -120170.06, -187500.02, -187500.02, -187500.02, -61511.80, -85866.28, 0.00, 0.00, 0.00
253, -187500.02, -187500.02, -120193.06, -187500.02, -187500.02, -187500.02, -61014.47, -85890.17, 0.00, 0.00, 0.00
254, -187500.02, -187500.02, -118161.30, -187500.02, -187500.02, -187500.02, -59584.88, -86015.30, 0.00, 0.00, 0.00
255, -187500.02, -187500.02, -117883.50, -187500.02, -187500.02, -187500.02, -59931.89, -86012.28, 0.00, 0.00, 0.00
0, -187500.02, -187500.02, -119925.11, -187500.02, -187500.02, -187500.02, -61408.04, -85877.68, -0.02, 0.91, 0.39
1, -187500.02, -187500.02, -120442.52, -187500.02, -187500.02, -187500.02, -61238.59, -85865.77, 0.00, 0.00, 0.00
2, -187500.02, -187500.02, -118564.94, -187500.02, -187500.02, -187500.02, -59782.11, -85993.66, 0.00, 0.00, 0.00
3, -187500.02, -187500.02, -117750.82, -187500.02, -187500.02, -187500.02, -59722.20, -86030.27, 0.00, 0.00, 0.00
4, -187500.02, -187500.02, -119657.94, -187500.02, -187500.02, -187500.02, -61249.23, -85877.74, 0.00, 0.00, 0.00
5, -187500.02, -187500.02, -120635.87, -187500.02, -187500.02, -187500.02, -61426.10, -85837.22, 0.00, 0.00, 0.00
6, -187500.02, -187500.02, -119022.25, -187500.02, -187500.02, -187500.02, -60035.24, -85980.23, 0.00, 0.00, 0.00
7, -187500.02, -187500.02, -117702.43, -187500.02, -187500.02, -187500.02, -59541.63, -86056.98, 0.00, 0.00, 0.00
8, -187500.02, -187500.02, -119316.76, -187500.02, -187500.02, -187500.02, -60993.80, -85906.94, 0.00, 0.00, 0.00
9, -187500.02, -187500.02, -120700.17, -187500.02, -187500.02, -187500.02, -61528.96, -85830.74, 0.00, 0.00, 0.00
10, -187500.02, -187500.02, -119424.05, -187500.02, -187500.02, -187500.02, -60281.42, -85931.32, -0.02, 0.91, 0.40
11, -187500.02, -187500.02, -117779.56, -187500.02, -187500.02, -187500.02, -59481.61, -86035.28, 0.00, 0.00, 0.00
12, -187500.02, -187500.02, -119015.88, -187500.02, -187500.02, -187500.02, -60758.59, -85932.75, 0.00, 0.00, 0.00
13, -187500.02, -187500.02, -120737.33, -187500.02, -187500.02, -187500.02, -61621.07, -85816.34, 0.00, 0.00, 0.00
14, -187500.02, -187500.02, -119907.00, -187500.02, -187500.02, -187500.02, -60583.08, -85898.35, 0.00, 0.00, 0.00
15, -187500.02, -187500.02, -117979.34, -187500.02, -187500.02, -187500.02, -59446.18, -86039.73, 0.00, 0.00, 0.00
16, -187500.02, -187500.02, -118678.82, -187500.02, -187500.02, -187500.02, -60432.32, -85971.67, 0.00, 0.00, 0.00
17, -187500.02, -187500.02, -120644.56, -187500.02, -187500.02, -187500.02, -61592.18, -85851.57, 0.00, 0.00, 0.00
18, -187500.02, -187500.02, -120278.80, -187500.02, -187500.02, -187500.02, -60824.79, -85910.83, 0.00, 0.00, 0.00
19, -187500.02, -187500.02, -118259.81, -187500.02, -187500.02, -187500.02, -59509.82, -86020.73, 0.00, 0.00, 0.00
20, -187500.02, -187500.02, -118424.50, -187500.02, -187500.02, -187500.02, -60162.38, -85980.14, -0.03, 0.91, 0.40
21, -187500.02, -187500.02, -120496.91, -187500.02, -187500.02, -187500.02, -61537.12, -85832.23, 0.00, 0.00, 0.00
22, -187500.02, -187500.02, -120599.88, -187500.02, -187500.02, -187500.02, -61069.37, -85859.62, 0.00, 0.00, 0.00
23, -187500.02, -187500.02, -118611.59, -187500.02, -187500.02, -187500.02, -59650.34, -86012.35, 0.00, 0.00, 0.00
24, -187500.02, -187500.02, -118216.95, -187500.02, -187500.02, -187500.02, -59901.02, -86024.59, 0.00, 0.00, 0.00
25, -187500.02, -187500.02, -120253.52, -187500.02, -187500.02, -187500.02, -61403.61, -85863.87, 0.00, 0.00, 0.00
26, -187500.02, -187500.02, -120870.02, -187500.02, -187500.02, -187500.02, -61301.33, -85847.66, 0.00, 0.00, 0.00
27, -187500.02, -187500.02, -119044.85, -187500.02, -187500.02, -187500.02, -59854.93, -86006.18, 0.00, 0.00, 0.00
28, -187500.02, -187500.02, -118116.20, -187500.02, -187500.02, -187500.02, -59693.59, -86047.55, 0.00, 0.00, 0.00
29, -187500.02, -187500.02, -119963.09, -187500.02, -187500.02, -187500.02, -61195.30, -85882.75, 0.00, 0.00, 0.00
30, -187500.02, -187500.02, -121037.84, -187500.02, -187500.02, -187500.02, -61452.48, -85847.39, -0.02, 0.91, 0.40
31, -187500.02, -187500.02, -119501.38, -187500.02, -187500.02, -187500.02, -60095.39, -85965.30, 0.00, 0.00, 0.00
32, -187500.02, -187500.02, -118103.40, -187500.02, -187500.02, -187500.02, -59538.41, -86047.77, 0.00, 0.00, 0.00
33, -187500.02, -187500.02, -119634.69, -187500.02, -187500.02, -187500.02, -60967.51, -85937.34, 0.00, 0.00, 0.00
34, -187500.02, -187500.02, -121157.23, -187500.02, -187500.02, -187500.02, -61608.07, -85857.70, 0.00, 0.00, 0.00
35, -187500.02, -187500.02, -119993.44, -187500.02, -187500.02, -187500.02, -60393.09, -85968.36, 0.00, 0.00, 0.00
36, -187500.02, -187500.02, -118286.32, -187500.02, -187500.02, -187500.02, -59510.00, -86037.85, 0.00, 0.00, 0.00
37, -187500.02, -187500.02, -119357.80, -187500.02, -187500.02, -187500.02, -60696.16, -85931.59, 0.00, 0.00, 0.00
38, -187500.02, -187500.02, -121143.70, -187500.02, -187500.02, -187500.02, -61625.41, -85817.66, 0.00, 0.00, 0.00
39, -187500.02, -187500.02, -120399.50, -187500.02, -187500.02, -187500.02, -60634.18, -85908.75, -0.02, 0.91, 0.39
40, -187500.02, -187500.02, -118430.09, -187500.02, -187500.02, -187500.02, -59462.37, -86044.20, 0.00, 0.00, 0.00
41, -187500.02, -187500.02, -118998.74, -187500.02, -187500.02, -187500.02, -60389.65, -85988.70, 0.00, 0.00, 0.00
42, -187500.02, -187500.02, -120969.52, -187500.02, -187500.02, -187500.02, -61598.25, -85864.70, 0.00, 0.00, 0.00
43, -187500.02, -187500.02, -120707.84, -187500.02, -187500.02, -187500.02, -60906.09, -85934.38, 0.00, 0.00, 0.00
44, -187500.02, -187500.02, -118676.54, -187500.02, -187500.02, -187500.02, -59563.62, -86071.87, 0.00, 0.00, 0.00
45, -187500.02, -187500.02, -118669.81, -187500.02, -187500.02, -187500.02, -60105.20, -86016.91, 0.00, 0.00, 0.00
46, -187500.02, -187500.02, -120726.55, -187500.02, -187500.02, -187500.02, -61516.60, -85856.29, 0.00, 0.00, 0.00
47, -187500.02, -187500.02, -120968.09, -187500.02, -187500.02, -187500.02, -61158.02, -85868.83, 0.00, 0.00, 0.00
48, -187500.02, -187500.02, -119018.99, -187500.02, -187500.02, -187500.02, -59734.43, -86011.66, 0.00, 0.00, 0.00
49, -187500.02, -187500.02, -118460.40, -187500.02, -187500.02, -187500.02, -59866.31, -86038.92, -0.02, 0.91, 0.39
50, -187500.02, -187500.02, -120455.54, -187500.02, -187500.02, -187500.02, -61381.82, -85892.25, 0.00, 0.00, 0.00
51, -187500.02, -187500.02, -121220.84, -187500.02, -187500.02, -187500.02, -61390.96, -85854.43, 0.00, 0.00, 0.00
52, -187500.02, -187500.02, -119454.40, -187500.02, -187500.02, -187500.02, -59952.00, -86006.07, 0.00, 0.00, 0.00
53, -187500.02, -187500.02, -118405.52, -187500.02, -187500.02, -187500.02, -59689.37, -86056.80, 0.00, 0.00, 0.00
54, -187500.02, -187500.02, -120175.42, -187500.02, -187500.02, -187500.02, -61175.27, -85926.61, 0.00, 0.00, 0.00
55, -187500.02, -187500.02, -121349.05, -187500.02, -187500.02, -187500.02, -61524.02, -85886.30, 0.00, 0.00, 0.00
56, -187500.02, -187500.02, -119910.02, -187500.02, -187500.02, -187500.02, -60210.50, -85989.55, 0.00, 0.00, 0.00
57, -187500.02, -187500.02, -118429.41, -187500.02, -187500.02, -187500.02, -59570.01, -86058.88, 0.00, 0.00, 0.00
58, -187500.02, -187500.02, -119864.00, -187500.02, -187500.02, -187500.02, -60947.30, -85937.29, 0.00, 0.00, 0.00
59, -187500.02, -187500.02, -121416.59, -187500.02, -187500.02, -187500.02, -61628.63, -85858.61, -0.03, 0.91, 0.40
60, -187500.02, -187500.02, -120362.77, -187500.02, -187500.02, -187500.02, -60467.43, -85944.17, 0.00, 0.00, 0.00
61, -187500.02, -187500.02, -118569.34, -187500.02, -187500.02, -187500.02, -59484.83, -86068.18, 0.00, 0.00, 0.00
62, -187500.02, -187500.02, -119525.81, -187500.02, -187500.02, -187500.02, -60622.11, -85992.66, 0.00, 0.00, 0.00
63, -187500.02, -187500.02, -121378.77, -187500.02, -187500.02, -187500.02, -61642.78, -85838.05, 0.00, 0.00, 0.00
64, -187500.02, -187500.02, -120761.84, -187500.02, -187500.02, -187500.02, -60731.77, -85890.29, 0.00, 0.00, 0.00
65, -187500.02, -187500.02, -118754.70, -187500.02, -187500.02, -187500.02, -59498.84, -86037.47, 0.00, 0.00, 0.00
66, -187500.02, -187500.02, -119179.59, -187500.02, -187500.02, -187500.02, -60322.04, -85988.59, 0.00, 0.00, 0.00
67, -187500.02, -187500.02, -121215.79, -187500.02, -187500.02, -187500.02, -61597.72, -85845.36, 0.00, 0.00, 0.00
68, -187500.02, -187500.02, -121089.81, -187500.02, -187500.02, -187500.02, -60971.31, -85900.66, 0.00, 0.00, 0.00
69, -187500.02, -187500.02, -119084.97, -187500.02, -187500.02, -187500.02, -59599.88, -86056.36, -0.03, 0.91, 0.40
70, -187500.02, -187500.02, -118957.63, -187500.02, -187500.02, -187500.02, -60051.96, -86049.59, 0.00, 0.00, 0.00
71, -187500.02, -187500.02, -121007.67, -187500.02, -187500.02, -187500.02, -61494.72, -85914.91, 0.00, 0.00, 0.00
72, -187500.02, -187500.02, -121360.18, -187500.02, -187500.02, -187500.02, -61204.48, -85863.15, 0.00, 0.00, 0.00
73, -187500.02, -187500.02, -119440.05, -187500.02, -187500.02, -187500.02, -59768.20, -85976.97, 0.00, 0.00, 0.00
74, -187500.02, -187500.02, -118783.13, -187500.02, -187500.02, -187500.02, -59819.05, -86010.59, 0.00, 0.00, 0.00
75, -187500.02, -187500.02, -120721.92, -187500.02, -187500.02, -187500.02, -61317.29, -85881.23, 0.00, 0.00, 0.00
76, -187500.02, -187500.02, -121580.63, -187500.02, -187500.02, -187500.02, -61404.24, -85859.87, 0.00, 0.00, 0.00
77, -187500.02, -187500.02, -119906.20, -187500.02, -187500.02, -187500.02, -60009.83, -85993.02, 0.00, 0.00, 0.00
78, -187500.02, -187500.02, -118706.24, -187500.02, -187500.02, -187500.02, -59631.46, -86071.45, 0.00, 0.00, 0.00
79, -187500.02, -187500.02, -120393.38, -187500.02, -187500.02, -187500.02, -61098.25, -85933.96, -0.03, 0.92, 0.40
80, -187500.02, -187500.02, -121687.25, -187500.02, -187500.02, -187500.02, -61547.38, -85838.90, 0.00, 0.00, 0.00
81, -187500.02, -187500.02, -120311.30, -187500.02, -187500.02, -187500.02, -60251.41, -85969.03, 0.00, 0.00, 0.00
82, -187500.02, -187500.02, -118704.16, -187500.02, -187500.02, -187500.02, -59513.04, -86087.43, 0.00, 0.00, 0.00
83, -187500.02, -187500.02, -119997.17, -187500.02, -187500.02, -187500.02, -60843.52, -85957.19, 0.00, 0.00, 0.00
84, -187500.02, -187500.02, -121623.08, -187500.02, -187500.02, -187500.02, -61636.86, -85833.80, 0.00, 0.00, 0.00
85, -187500.02, -187500.02, -120659.98, -187500.02, -187500.02, -187500.02, -60537.53, -85932.22, 0.00, 0.00, 0.00
86, -187500.02, -187500.02, -118810.52, -187500.02, -187500.02, -187500.02, -59502.89, -86034.88, 0.00, 0.00, 0.00
87, -187500.02, -187500.02, -119638.49, -187500.02, -187500.02, -187500.02, -60557.94, -85954.37, 0.00, 0.00, 0.00
88, -187500.02, -187500.02, -121546.59, -187500.02, -187500.02, -187500.02, -61645.57, -85843.05, 0.00, 0.00, 0.00
89, -187500.02, -187500.02, -121048.86, -187500.02, -187500.02, -187500.02, -60795.94, -85895.27, -0.02, 0.91, 0.39
90, -187500.02, -187500.02, -119009.49, -187500.02, -187500.02, -187500.02, -59507.81, -86053.74, 0.00, 0.00, 0.00
91, -187500.02, -187500.02, -119298.32, -187500.02, -187500.02, -187500.02, -60256.95, -86026.07, 0.00, 0.00, 0.00
92, -187500.02, -187500.02, -121353.14, -187500.02, -187500.02, -187500.02, -61593.23, -85840.44, 0.00, 0.00, 0.00
93, -187500.02, -187500.02, -121352.02, -187500.02, -187500.02, -187500.02, -61061.39, -85877.66, 0.00, 0.00, 0.00
94, -187500.02, -187500.02, -119354.63, -187500.02, -187500.02, -187500.02, -59664.09, -86015.79, 0.00, 0.00, 0.00
95, -187500.02, -187500.02, -119085.22, -187500.02, -187500.02, -187500.02, -60007.48, -86005.28, 0.00, 0.00, 0.00
96, -187500.02, -187500.02, -121118.20, -187500.02, -187500.02, -187500.02, -61467.88, -85871.17, 0.00, 0.00, 0.00
97, -187500.02, -187500.02, -121625.91, -187500.02, -187500.02, -187500.02, -61271.36, -85831.05, 0.00, 0.00, 0.00
98, -187500.02, -187500.02, -119744.37, -187500.02, -187500.02, -187500.02, -59801.40, -85929.58, 0.00, 0.00, 0.00
99, -187500.02, -187500.02, -118930.21, -187500.02, -187500.02, -187500.02, -59741.90, -85991.27, -0.03, 0.91, 0.39
100, -187500.02, -187500.02, -120847.70, -187500.02, -187500.02, -187500.02, -61275.90, -85863.02, 0.00, 0.00, 0.00
101, -187500.02, -187500.02, -121789.87, -187500.02, -187500.02, -187500.02, -61435.20, -85825.47, 0.00, 0.00, 0.00
102, -187500.02, -187500.02, -120195.20, -187500.02, -187500.02, -187500.02, -60073.30, -85966.04, 0.00, 0.00, 0.00
103, -187500.02, -187500.02, -118902.96, -187500.02, -187500.02, -187500.02, -59610.98, -86071.58, 0.00, 0.00, 0.00
104, -187500.02, -187500.02, -120501.16, -187500.02, -187500.02, -187500.02, -61062.01, -85962.84, 0.00, 0.00, 0.00
105, -187500.02, -187500.02, -121890.23, -187500.02, -187500.02, -187500.02, -61597.74, -85834.59, 0.00, 0.00, 0.00
106, -187500.02, -187500.02, -120627.35, -187500.02, -187500.02, -187500.02, -60350.73, -85943.98, 0.00, 0.00, 0.00
107, -187500.02, -187500.02, -118951.98, -187500.02, -187500.02, -187500.02, -59530.79, -86077.68, 0.00, 0.00, 0.00
108, -187500.02, -187500.02, -120144.13, -187500.02, -187500.02, -187500.02, -60792.52, -85975.67, 0.00, 0.00, 0.00
109, -187500.02, -187500.02, -121836.56, -187500.02, -187500.02, -187500.02, -61646.11, -85846.48, -0.03, 0.91, 0.39
110, -187500.02, -187500.02, -120966.72, -187500.02, -187500.02, -187500.02, -60596.94, -85926.34, 0.00, 0.00, 0.00
111, -187500.02, -187500.02, -119042.33, -187500.02, -187500.02, -187500.02, -59498.84, -86067.29, 0.00, 0.00, 0.00
112, -187500.02, -187500.02, -119737.33, -187500.02, -187500.02, -187500.02, -60499.04, -85987.65, 0.00, 0.00, 0.00
113, -187500.02, -187500.02, -121698.54, -187500.02, -187500.02, -187500.02, -61658.09, -85851.10, 0.00, 0.00, 0.00
114, -187500.02, -187500.02, -121327.19, -187500.02, -187500.02, -187500.02, -60886.20, -85893.33, 0.00, 0.00, 0.00
115, -187500.02, -187500.02, -119299.57, -187500.02, -187500.02, -187500.02, -59564.69, -86044.24, 0.00, 0.00, 0.00
116, -187500.02, -187500.02, -119455.70, -187500.02, -187500.02, -187500.02, -60209.70, -86025.55, 0.00, 0.00, 0.00
117, -187500.02, -187500.02, -121505.13, -187500.02, -187500.02, -187500.02, -61573.67, -85901.57, 0.00, 0.00, 0.00
118, -187500.02, -187500.02, -121617.23, -187500.02, -187500.02, -187500.02, -61127.19, -85922.54, -0.03, 0.91, 0.40
119, -187500.02, -187500.02, -119646.94, -187500.02, -187500.02, -187500.02, -59720.33, -86037.83, 0.00, 0.00, 0.00
120, -187500.02, -187500.02, -119239.13, -187500.02, -187500.02, -187500.02, -59964.57, -86026.90, 0.00, 0.00, 0.00
121, -187500.02, -187500.02, -121244.44, -187500.02, -187500.02, -187500.02, -61442.57, -85897.35, 0.00, 0.00, 0.00
122, -187500.02, -187500.02, -121866.04, -187500.02, -187500.02, -187500.02, -61344.65, -85904.91, 0.00, 0.00, 0.00
123, -187500.02, -187500.02, -120038.85, -187500.02, -187500.02, -187500.02, -59901.45, -86038.32, 0.00, 0.00, 0.00
124, -187500.02, -187500.02, -119094.29, -187500.02, -187500.02, -187500.02, -59737.11, -86039.77, 0.00, 0.00, 0.00
125, -187500.02, -187500.02, -120947.34, -187500.02, -187500.02, -187500.02, -61256.29, -85885.70, 0.00, 0.00, 0.00
126, -187500.02, -187500.02, -122028.65, -187500.02, -187500.02, -187500.02, -61531.31, -85853.54, 0.00, 0.00, 0.00
127, -187500.02, -187500.02, -120467.07, -187500.02, -187500.02, -187500.02, -60173.53, -85999.98, 0.00, 0.00, 0.00
128, -187500.02, -187500.02, -119056.25, -187500.02, -187500.02, -187500.02, -59625.09, -86079.94, -0.03, 0.91, 0.40
129, -187500.02, -187500.02, -120541.73, -187500.02, -187500.02, -187500.02, -61030.18, -85970.46, 0.00, 0.00, 0.00
130, -187500.02, -187500.02, -121976.39, -187500.02, -187500.02, -187500.02, -61633.57, -85866.33, 0.00, 0.00, 0.00
131, -187500.02, -187500.02, -120776.93, -187500.02, -187500.02, -187500.02, -60420.77, -85963.55, 0.00, 0.00, 0.00
132, -187500.02, -187500.02, -119030.21, -187500.02, -187500.02, -187500.02, -59534.09, -86075.24, 0.00, 0.00, 0.00
133, -187500.02, -187500.02, -120106.05, -187500.02, -187500.02, -187500.02, -60744.26, -85971.53, 0.00, 0.00, 0.00
134, -187500.02, -187500.02, -121856.66, -187500.02, -187500.02, -187500.02, -61672.06, -85863.15, 0.00, 0.00, 0.00
135, -187500.02, -187500.02, -121094.17, -187500.02, -187500.02, -187500.02, -60695.73, -85939.03, 0.00, 0.00, 0.00
136, -187500.02, -187500.02, -119124.89, -187500.02, -187500.02, -187500.02, -59535.23, -86060.00, 0.00, 0.00, 0.00
137, -187500.02, -187500.02, -119690.21, -187500.02, -187500.02, -187500.02, -60456.73, -85997.71, 0.00, 0.00, 0.00
138, -187500.02, -187500.02, -121643.15, -187500.02, -187500.02, -187500.02, -61652.23, -85884.61, -0.03, 0.91, 0.39
139, -187500.02, -187500.02, -121382.80, -187500.02, -187500.02, -187500.02, -60967.02, -85920.10, 0.00, 0.00, 0.00
140, -187500.02, -187500.02, -119372.64, -187500.02, -187500.02, -187500.02, -59641.96, -86065.63, 0.00, 0.00, 0.00
141, -187500.02, -187500.02, -119379.77, -187500.02, -187500.02, -187500.02, -60196.38, -86055.04, 0.00, 0.00, 0.00
142, -187500.02, -187500.02, -121427.91, -187500.02, -187500.02, -187500.02, -61592.89, -85875.42, 0.00, 0.00, 0.00
143, -187500.02, -187500.02, -121645.14, -187500.02, -187500.02, -187500.02, -61206.88, -85884.43, 0.00, 0.00, 0.00
144, -187500.02, -187500.02, -119643.95, -187500.02, -187500.02, -187500.02, -59771.89, -86033.90, 0.00, 0.00, 0.00
145, -187500.02, -187500.02, -119082.76, -187500.02, -187500.02, -187500.02, -59927.50, -86068.45, 0.00, 0.00, 0.00
146, -187500.02, -187500.02, -121061.83, -187500.02, -187500.02, -187500.02, -61430.50, -85910.78, 0.00, 0.00, 0.00
147, -187500.02, -187500.02, -121781.93, -187500.02, -187500.02, -187500.02, -61424.02, -85870.17, 0.00, 0.00, 0.00
148, -187500.02, -187500.02, -119971.76, -187500.02, -187500.02, -187500.02, -59984.55, -86028.22, -0.02, 0.91, 0.39
149, -187500.02, -187500.02, -118873.95, -187500.02, -187500.02, -187500.02, -59713.33, -86065.77, 0.00, 0.00, 0.00
150, -187500.02, -187500.02, -120628.09, -187500.02, -187500.02, -187500.02, -61202.02, -85909.66, 0.00, 0.00, 0.00
151, -187500.02, -187500.02, -121828.42, -187500.02, -187500.02, -187500.02, -61569.15, -85881.84, 0.00, 0.00, 0.00
152, -187500.02, -187500.02, -120365.73, -187500.02, -187500.02, -187500.02, -60237.43, -85981.64, 0.00, 0.00, 0.00
153, -187500.02, -187500.02, -118844.49, -187500.02, -187500.02, -187500.02, -59587.74, -86056.91, 0.00, 0.00, 0.00
154, -187500.02, -187500.02, -120261.59, -187500.02, -187500.02, -187500.02, -60968.38, -85943.91, 0.00, 0.00, 0.00
155, -187500.02, -187500.02, -121798.77, -187500.02, -187500.02, -187500.02, -61660.70, -85862.62, 0.00, 0.00, 0.00
156, -187500.02, -187500.02, -120735.11, -187500.02, -187500.02, -187500.02, -60526.98, -85936.73, 0.00, 0.00, 0.00
157, -187500.02, -187500.02, -118928.91, -187500.02, -187500.02, -187500.02, -59563.95, -86055.40, 0.00, 0.00, 0.00
158, -187500.02, -187500.02, -119871.82, -187500.02, -187500.02, -187500.02, -60688.65, -85980.03, -0.03, 0.91, 0.40
159, -187500.02, -187500.02, -121714.61, -187500.02, -187500.02, -187500.02, -61697.34, -85859.46, 0.00, 0.00, 0.00
160, -187500.02, -187500.02, -121076.76, -187500.02, -187500.02, -187500.02, -60784.00, -85937.29, 0.00, 0.00, 0.00
161, -187500.02, -187500.02, -119071.02, -187500.02, -187500.02, -187500.02, -59565.27, -86087.41, 0.00, 0.00, 0.00
162, -187500.02, -187500.02, -119491.33, -187500.02, -187500.02, -187500.02, -60402.35, -86024.98, 0.00, 0.00, 0.00
163, -187500.02, -187500.02, -121498.31, -187500.02, -187500.02, -187500.02, -61670.36, -85862.93, 0.00, 0.00, 0.00
164, -187500.02, -187500.02, -121326.74, -187500.02, -187500.02, -187500.02, -61035.73, -85905.82, 0.00, 0.00, 0.00
165, -187500.02, -187500.02, -119278.18, -187500.02, -187500.02, -187500.02, -59657.96, -86058.64, 0.00, 0.00, 0.00
166, -187500.02, -187500.02, -119130.79, -187500.02, -187500.02, -187500.02, -60112.78, -86045.45, 0.00, 0.00, 0.00
167, -187500.02, -187500.02, -121168.31, -187500.02, -187500.02, -187500.02, -61550.22, -85895.38, 0.00, 0.00, 0.00
168, -187500.02, -187500.02, -121527.62, -187500.02, -187500.02, -187500.02, -61277.33, -85905.57, -0.02, 0.91, 0.40
169, -187500.02, -187500.02, -119591.38, -187500.02, -187500.02, -187500.02, -59834.54, -86054.66, 0.00, 0.00, 0.00
170, -187500.02, -187500.02, -118907.01, -187500.02, -187500.02, -187500.02, -59886.11, -86072.85, 0.00, 0.00, 0.00
171, -187500.02, -187500.02, -120873.34, -187500.02, -187500.02, -187500.02, -61417.96, -85905.62, 0.00, 0.00, 0.00
172, -187500.02, -187500.02, -121735.02, -187500.02, -187500.02, -187500.02, -61494.77, -85876.78, 0.00, 0.00, 0.00
173, -187500.02, -187500.02, -120016.50, -187500.02, -187500.02, -187500.02, -60056.12, -86022.67, 0.00, 0.00, 0.00
174, -187500.02, -187500.02, -118828.55, -187500.02, -187500.02, -187500.02, -59699.88, -86072.92, 0.00, 0.00, 0.00
175, -187500.02, -187500.02, -120547.24, -187500.02, -187500.02, -187500.02, -61194.80, -85900.52, 0.00, 0.00, 0.00
176, -187500.02, -187500.02, -121807.10, -187500.02, -187500.02, -187500.02, -61610.10, -85818.88, 0.00, 0.00, 0.00
177, -187500.02, -187500.02, -120413.73, -187500.02, -187500.02, -187500.02, -60306.30, -85925.02, 0.00, 0.00, 0.00
178, -187500.02, -187500.02, -118837.74, -187500.02, -187500.02, -187500.02, -59595.23, -86027.77, -0.03, 0.91, 0.40
179, -187500.02, -187500.02, -120173.41, -187500.02, -187500.02, -187500.02, -60934.96, -85930.30, 0.00, 0.00, 0.00
180, -187500.02, -187500.02, -121763.34, -187500.02, -187500.02, -187500.02, -61681.63, -85849.90, 0.00, 0.00, 0.00
181, -187500.02, -187500.02, -120765.53, -187500.02, -187500.02, -187500.02, -60578.88, -85939.93, 0.00, 0.00, 0.00
182, -187500.02, -187500.02, -118881.73, -187500.02, -187500.02, -187500.02, -59552.60, -86084.95, 0.00, 0.00, 0.00
183, -187500.02, -187500.02, -119733.35, -187500.02, -187500.02, -187500.02, -60647.46, -85999.72, 0.00, 0.00, 0.00
184, -187500.02, -187500.02, -121612.10, -187500.02, -187500.02, -187500.02, -61708.71, -85852.69, 0.00, 0.00, 0.00
185, -187500.02, -187500.02, -121096.23, -187500.02, -187500.02, -187500.02, -60864.51, -85919.74, 0.00, 0.00, 0.00
186, -187500.02, -187500.02, -119107.08, -187500.02, -187500.02, -187500.02, -59619.34, -86071.73, 0.00, 0.00, 0.00
187, -187500.02, -187500.02, -119394.48, -187500.02, -187500.02, -187500.02, -60350.85, -86003.30, 0.00, 0.00, 0.00
188, -187500.02, -187500.02, -121440.80, -187500.02, -187500.02, -187500.02, -61664.86, -85840.71, -0.03, 0.91, 0.40
189, -187500.02, -187500.02, -121419.48, -187500.02, -187500.02, -187500.02, -61114.94, -85878.33, 0.00, 0.00, 0.00
190, -187500.02, -187500.02, -119397.07, -187500.02, -187500.02, -187500.02, -59711.14, -86021.83, 0.00, 0.00, 0.00
191, -187500.02, -187500.02, -119141.95, -187500.02, -187500.02, -187500.02, -60075.92, -86026.85, 0.00, 0.00, 0.00
192, -187500.02, -187500.02, -121163.86, -187500.02, -187500.02, -187500.02, -61521.88, -85889.19, 0.00, 0.00, 0.00
193, -187500.02, -187500.02, -121646.23, -187500.02, -187500.02, -187500.02, -61335.06, -85892.38, 0.00, 0.00, 0.00
194, -187500.02, -187500.02, -119763.48, -187500.02, -187500.02, -187500.02, -59903.03, -86038.14, 0.00, 0.00, 0.00
195, -187500.02, -187500.02, -118951.15, -187500.02, -187500.02, -187500.02, -59852.80, -86047.58, 0.00, 0.00, 0.00
196, -187500.02, -187500.02, -120832.68, -187500.02, -187500.02, -187500.02, -61351.20, -85889.19, 0.00, 0.00, 0.00
197, -187500.02, -187500.02, -121775.56, -187500.02, -187500.02, -187500.02, -61513.27, -85857.38, 0.00, 0.00, 0.00
198, -187500.02, -187500.02, -120119.73, -187500.02, -187500.02, -187500.02, -60114.97, -85978.59, -0.03, 0.91, 0.40
199, -187500.02, -187500.02, -118831.80, -187500.02, -187500.02, -187500.02, -59672.14, -86056.31, 0.00, 0.00, 0.00
200, -187500.02, -187500.02, -120443.65, -187500.02, -187500.02, -187500.02, -61120.82, -85932.64, 0.00, 0.00, 0.00
201, -187500.02, -187500.02, -121792.84, -187500.02, -187500.02, -187500.02, -61628.47, -85832.64, 0.00, 0.00, 0.00
202, -187500.02, -187500.02, -120488.28, -187500.02, -187500.02, -187500.02, -60367.90, -85952.38, 0.00, 0.00, 0.00
203, -187500.02, -187500.02, -118792.72, -187500.02, -187500.02, -187500.02, -59554.03, -86059.69, 0.00, 0.00, 0.00
204, -187500.02, -187500.02, -119989.62, -187500.02, -187500.02, -187500.02, -60842.21, -85963.38, 0.00, 0.00, 0.00
205, -187500.02, -187500.02, -121683.52, -187500.02, -187500.02, -187500.02, -61710.41, -85875.71, 0.00, 0.00, 0.00
206, -187500.02, -187500.02, -120821.10, -187500.02, -187500.02, -187500.02, -60679.51, -85951.95, 0.00, 0.00, 0.00
207, -187500.02, -187500.02, -118890.40, -187500.02, -187500.02, -187500.02, -59571.84, -86060.07, -0.03, 0.90, 0.40
208, -187500.02, -187500.02, -119593.77, -187500.02, -187500.02, -187500.02, -60580.07, -86007.21, 0.00, 0.00, 0.00
209, -187500.02, -187500.02, -121517.87, -187500.02, -187500.02, -187500.02, -61718.24, -85888.43, 0.00, 0.00, 0.00
210, -187500.02, -187500.02, -121102.28, -187500.02, -187500.02, -187500.02, -60935.86, -85925.49, 0.00, 0.00, 0.00
211, -187500.02, -187500.02, -119050.98, -187500.02, -187500.02, -187500.02, -59628.30, -86061.50, 0.00, 0.00, 0.00
212, -187500.02, -187500.02, -119192.41, -187500.02, -187500.02, -187500.02, -60285.78, -86032.04, 0.00, 0.00, 0.00
213, -187500.02, -187500.02, -121251.08, -187500.02, -187500.02, -187500.02, -61659.54, -85881.01, 0.00, 0.00, 0.00
214, -187500.02, -187500.02, -121345.18, -187500.02, -187500.02, -187500.02, -61189.78, -85869.23, 0.00, 0.00, 0.00
215, -187500.02, -187500.02, -119316.18, -187500.02, -187500.02, -187500.02, -59745.34, -85997.88, 0.00, 0.00, 0.00
216, -187500.02, -187500.02, -118866.75, -187500.02, -187500.02, -187500.02, -59944.52, -85872.18, 0.00, 0.00, 0.00
217, -187500.02, -187500.02, -120810.88, -187500.02, -187500.02, -187500.02, -61239.00, -85371.39, -0.03, 0.91, 0.40
218, -187500.02, -187500.02, -121354.41, -187500.02, -187500.02, -187500.02, -60974.71, -85270.94, 0.00, 0.00, 0.00
219, -187500.02, -187500.02, -119485.58, -187500.02, -187500.02, -187500.02, -59467.77, -85395.26, 0.00, 0.00, 0.00
220, -187500.02, -187500.02, -118495.42, -187500.02, -187500.02, -187500.02, -59135.29, -85005.31, 0.00, 0.00, 0.00
221, -187500.02, -187500.02, -120011.34, -187500.02, -187500.02, -187500.02, -59570.17, -82318.43, 0.00, 0.00, 0.00
222, -187500.02, -187500.02, -120272.66, -187500.02, -187500.02, -187500.02, -56991.52, -76978.66, 0.00, 0.00, 0.00
223, -187500.02, -187500.02, -117826.66, -187500.02, -187500.02, -187500.02, -51995.99, -72307.31, 0.00, 0.00, 0.00
224, -187500.02, -187500.02, -115569.18, -187500.02, -187500.02, -187500.02, -47890.89, -68545.34, 0.00, 0.00, 0.00
225, -187500.02, -187500.02, -116311.45, -187500.02, -187500.02, -187500.02, -45993.09, -65141.12, 0.00, 0.00, 0.00
226, -187500.02, -187500.02, -117051.59, -187500.02, -187500.02, -187500.02, -43667.06, -62521.71, 0.00, 0.00, 0.00
227, -187500.02, -187500.02, -115229.14, -187500.02, -187500.02, -187500.02, -40043.73, -60881.88, -0.03, 0.91, 0.39
228, -187500.02, -187500.02, -112925.68, -187500.02, -187500.02, -187500.02, -37345.83, -60093.16, 0.00, 0.00, 0.00
229, -187500.02, -187500.02, -113610.76, -187500.02, -187500.02, -187500.02, -37333.07, -59396.72, 0.00, 0.00, 0.00
230, -187500.02, -187500.02, -115039.33, -187500.02, -187500.02, -187500.02, -37277.41, -58672.30, 0.00, 0.00, 0.00
231, -187500.02, -187500.02, -113842.80, -187500.02, -187500.02, -187500.02, -35306.99, -57963.35, 0.00, 0.00, 0.00
232, -187500.02, -187500.02, -111287.95, -187500.02, -187500.02, -187500.02, -32955.07, -56771.98, 0.00, 0.00, 0.00
233, -187500.02, -187500.02, -111364.63, -187500.02, -187500.02, -187500.02, -32580.77, -55094.39, 0.00, 0.00, 0.00
234, -187500.02, -187500.02, -112960.20, -187500.02, -187500.02, -187500.02, -32487.37, -53615.30, 0.00, 0.00, 0.00
235, -187500.02, -187500.02, -112259.09, -187500.02, -187500.02, -187500.02, -30579.87, -52765.76, 0.00, 0.00, 0.00
236, -187500.02, -187500.02, -109672.02, -187500.02, -187500.02, -187500.02, -28126.21, -52121.23, 0.00, 0.00, 0.00
237, -187500.02, -187500.02, -109202.46, -187500.02, -187500.02, -187500.02, -27679.42, -51083.39, -0.02, 0.92, 0.38
238, -187500.02, -187500.02, -110979.34, -187500.02, -187500.02, -187500.02, -28177.79, -49936.66, 0.00, 0.00, 0.00
239, -187500.02, -187500.02, -110841.67, -187500.02, -187500.02, -187500.02, -26963.67, -49472.84, 0.00, 0.00, 0.00
240, -187500.02, -187500.02, -108445.52, -187500.02, -187500.02, -187500.02, -24993.03, -49772.89, 0.00, 0.00, 0.00
241, -187500.02, -187500.02, -107571.61, -187500.02, -187500.02, -187500.02, -24938.47, -49884.04, 0.00, 0.00, 0.00
242, -187500.02, -187500.02, -109507.65, -187500.02, -187500.02, -187500.02, -26436.32, -49780.20, 0.00, 0.00, 0.00
243, -187500.02, -187500.02, -110091.73, -187500.02, -187500.02, -187500.02, -26528.48, -50377.39, 0.00, 0.00, 0.00
244, -187500.02, -187500.02, -108067.80, -187500.02, -187500.02, -187500.02, -25356.09, -51251.72, 0.00, 0.00, 0.00
245, -187500.02, -187500.02, -106734.09, -187500.02, -187500.02, -187500.02, -25428.21, -51773.84, 0.00, 0.00, 0.00
246, -187500.02, -187500.02, -108564.30, -187500.02, -187500.02, -187500.02, -27324.96, -51641.69, 0.00, 0.00, 0.00
247, -187500.02, -187500.02, -109632.95, -187500.02, -187500.02, -187500.02, -27770.39, -51611.00, -0.02, 0.92, 0.38
248, -187500.02, -187500.02, -107855.70, -187500.02, -187500.02, -187500.02, -26359.01, -51726.38, 0.00, 0.00, 0.00
249, -187500.02, -187500.02, -105924.73, -187500.02, -187500.02, -187500.02, -25487.18, -51470.07, 0.00, 0.00, 0.00
250, -187500.02, -187500.02, -107238.84, -187500.02, -187500.02, -187500.02, -26602.42, -50379.24, 0.00, 0.00, 0.00
251, -187500.02, -187500.02, -108621.70, -187500.02, -187500.02, -187500.02, -26708.88, -49375.67, 0.00, 0.00, 0.00
252, -187500.02, -187500.02, -107149.92, -187500.02, -187500.02, -187500.02, -24868.39, -48991.02, 0.00, 0.00, 0.00
253, -187500.02, -187500.02, -104720.76, -187500.02, -187500.02, -187500.02, -23185.73, -48629.46, 0.00, 0.00, 0.00
254, -187500.02, -187500.02, -105508.77, -187500.02, -187500.02, -187500.02, -23897.61, -47643.05, 0.00, 0.00, 0.00
255, -187500.02, -187500.02, -107249.84, -187500.02, -187500.02, -187500.02, -24313.24, -46720.53, 0.00, 0.00, 0.00
0, -187500.02, -187500.02, -106236.01, -187500.02, -187500.02, -187500.02, -22666.46, -46298.39, 0.00, 0.00, 0.00
1, -187500.02, -187500.02, -103598.77, -187500.02, -187500.02, -187500.02, -20716.02, -46120.25, -0.02, 0.92, 0.39
2, -187500.02, -187500.02, -103790.32, -187500.02, -187500.02, -187500.02, -21173.11, -45380.79, 0.00, 0.00, 0.00
3, -187500.02, -187500.02, -105850.88, -187500.02, -187500.02, -187500.02, -22059.54, -44546.89, 0.00, 0.00, 0.00
4, -187500.02, -187500.02, -105437.82, -187500.02, -187500.02, -187500.02, -20872.71, -44336.45, 0.00, 0.00, 0.00
5, -187500.02, -187500.02, -102784.20, -187500.02, -187500.02, -187500.02, -18898.53, -44439.91, 0.00, 0.00, 0.00
6, -187500.02, -187500.02, -102315.48, -187500.02, -187500.02, -187500.02, -19129.00, -44086.16, 0.00, 0.00, 0.00
7, -187500.02, -187500.02, -104536.22, -187500.02, -187500.02, -187500.02, -20527.48, -43524.70, 0.00, 0.00, 0.00
8, -187500.02, -187500.02, -104780.98, -187500.02, -187500.02, -187500.02, -20068.94, -43814.65, 0.00, 0.00, 0.00
9, -187500.02, -187500.02, -102410.64, -187500.02, -187500.02, -187500.02, -18589.70, -44772.87, 0.00, 0.00, 0.00
10, -187500.02, -187500.02, -101464.78, -187500.02, -187500.02, -187500.02, -19031.08, -45451.93, 0.00, 0.00, 0.00
11, -187500.02, -187500.02, -103815.63, -187500.02, -187500.02, -187500.02, -21344.53, -45816.09, -0.02, 0.92, 0.38
