%OpenBCI Raw EEG Data
%
%Sample Rate = 250.0 Hz
%First Column = SampleIndex
%Other Columns = EEG data in microvolts followed by Accel Data (in G) interleaved with Aux Data
0, 37714.63, 30805.89, 24662.58, -10624.01, 15178.76, -10080.90, 12657.19, 2662.27, 0.05, 0.47, 0.13
1, 37668.19, 30747.06, 24914.73, -10670.50, 16271.33, -10145.72, 12596.64, 2574.09, 0.00, 0.00, 0.00
2, 37839.76, 30821.78, 24046.97, -10374.43, 14919.16, -9893.57, 12876.93, 2771.26, 0.00, 0.00, 0.00
3, 37910.10, 30895.34, 23677.78, -10296.78, 13628.82, -9802.65, 12963.25, 2872.96, 0.00, 0.00, 0.00
4, 37745.86, 30829.42, 24488.93, -10586.84, 14787.27, -10042.35, 12678.22, 2687.15, 0.00, 0.00, 0.00
5, 37661.59, 30756.47, 24954.85, -10703.13, 16188.32, -10160.28, 12557.83, 2558.81, 0.00, 0.00, 0.00
6, 37821.59, 30816.77, 24206.87, -10428.65, 15184.17, -9931.08, 12824.67, 2734.00, 0.00, 0.00, 0.00
7, 37917.79, 30890.09, 23651.52, -10297.81, 13634.47, -9802.96, 12959.67, 2860.24, 0.10, 0.96, 0.27
8, 37780.21, 30846.88, 24338.23, -10545.73, 14425.23, -10006.12, 12715.39, 2707.20, 0.00, 0.00, 0.00
9, 37663.71, 30767.58, 24996.54, -10712.12, 16074.10, -10163.36, 12544.40, 2558.40, 0.00, 0.00, 0.00
10, 37793.27, 30806.83, 24407.79, -10480.82, 15496.22, -9981.33, 12762.53, 2685.41, 0.00, 0.00, 0.00
11, 37938.69, 30901.08, 23677.49, -10272.50, 13751.42, -9784.86, 12965.98, 2864.13, 0.00, 0.00, 0.00
12, 37839.00, 30887.72, 24168.02, -10471.59, 14070.85, -9936.11, 12780.19, 2764.78, 0.00, 0.00, 0.00
13, 37673.95, 30785.79, 24953.64, -10724.34, 15855.50, -10170.20, 12527.33, 2552.90, 0.00, 0.00, 0.00
14, 37755.85, 30788.50, 24558.04, -10558.72, 15759.50, -10049.81, 12674.67, 2624.50, 0.00, 0.00, 0.00
15, 37931.11, 30890.38, 23715.96, -10289.92, 13963.27, -9800.14, 12925.59, 2833.60, 0.00, 0.00, 0.00
16, 37854.31, 30882.02, 23989.03, -10441.33, 13863.22, -9916.60, 12777.46, 2760.42, 0.10, 0.95, 0.27
17, 37680.82, 30787.81, 24843.87, -10710.22, 15660.66, -10163.38, 12509.67, 2544.54, 0.00, 0.00, 0.00
18, 37730.48, 30781.05, 24663.05, -10599.89, 16016.79, -10090.90, 12605.89, 2571.86, 0.00, 0.00, 0.00
19, 37914.23, 30880.63, 23780.04, -10304.42, 14300.62, -9833.22, 12885.87, 2795.09, 0.00, 0.00, 0.00
20, 37891.01, 30905.44, 23843.97, -10382.09, 13749.14, -9877.50, 12812.11, 2781.88, 0.00, 0.00, 0.00
21, 37701.31, 30805.71, 24732.45, -10692.43, 15419.60, -10140.79, 12510.34, 2555.79, 0.00, 0.00, 0.00
22, 37713.36, 30782.80, 24780.08, -10648.97, 16199.14, -10119.73, 12545.43, 2536.48, 0.00, 0.00, 0.00
23, 37903.75, 30873.77, 23900.25, -10338.75, 14653.31, -9857.16, 12836.70, 2751.37, 0.00, 0.00, 0.00
24, 37932.94, 30927.10, 23733.10, -10325.97, 13661.86, -9828.84, 12849.32, 2800.58, 0.00, 0.00, 0.00
25, 37758.09, 30848.67, 24589.44, -10627.20, 15076.77, -10082.89, 12553.14, 2590.75, 0.00, 0.00, 0.00
26, 37721.50, 30799.47, 24858.89, -10665.85, 16227.72, -10133.92, 12515.59, 2511.37, 0.10, 0.94, 0.27
27, 37900.36, 30879.72, 24042.29, -10369.13, 14950.92, -9882.69, 12802.39, 2717.17, 0.00, 0.00, 0.00
28, 37953.28, 30931.53, 23651.68, -10301.96, 13627.34, -9808.19, 12864.99, 2801.81, 0.00, 0.00, 0.00
29, 37790.83, 30864.09, 24399.30, -10583.48, 14715.27, -10043.13, 12588.28, 2612.11, 0.00, 0.00, 0.00
30, 37711.91, 30802.18, 24870.18, -10693.28, 16176.72, -10152.85, 12472.47, 2491.55, 0.00, 0.00, 0.00
31, 37860.52, 30853.65, 24166.33, -10429.44, 15282.89, -9933.81, 12724.27, 2655.23, 0.00, 0.00, 0.00
32, 37962.05, 30924.49, 23585.69, -10284.95, 13697.19, -9792.75, 12865.35, 2788.98, 0.00, 0.00, 0.00
33, 37810.07, 30864.52, 24194.62, -10546.71, 14397.88, -10007.12, 12609.16, 2626.37, 0.00, 0.00, 0.00
34, 37698.63, 30795.61, 24830.42, -10715.54, 16063.39, -10166.15, 12439.73, 2470.49, 0.00, 0.00, 0.00
35, 37830.41, 30839.68, 24305.35, -10486.59, 15585.18, -9982.09, 12655.40, 2604.18, 0.00, 0.00, 0.00
36, 37970.23, 30924.71, 23590.72, -10272.55, 13853.03, -9784.05, 12870.49, 2788.02, 0.09, 0.95, 0.27
37, 37885.07, 30917.54, 24021.29, -10447.54, 14073.06, -9916.91, 12704.64, 2695.46, 0.00, 0.00, 0.00
38, 37728.16, 30822.94, 24779.05, -10693.21, 15838.65, -10145.88, 12454.01, 2487.37, 0.00, 0.00, 0.00
39, 37801.29, 30823.12, 24424.18, -10536.88, 15833.89, -10033.09, 12592.79, 2551.43, 0.00, 0.00, 0.00
40, 37974.14, 30918.29, 23602.35, -10267.27, 14050.46, -9789.93, 12856.12, 2762.21, 0.00, 0.00, 0.00
41, 37921.52, 30926.56, 23826.71, -10389.90, 13793.13, -9874.35, 12742.57, 2717.50, 0.00, 0.00, 0.00
42, 37738.39, 30828.26, 24654.51, -10683.71, 15508.44, -10132.69, 12455.55, 2491.46, 0.00, 0.00, 0.00
43, 37761.39, 30800.03, 24524.87, -10611.42, 15942.07, -10091.81, 12515.08, 2490.05, 0.00, 0.00, 0.00
44, 37932.68, 30880.48, 23670.18, -10327.38, 14247.02, -9848.04, 12791.21, 2697.25, 0.00, 0.00, 0.00
45, 37930.48, 30915.05, 23675.37, -10368.68, 13553.58, -9858.35, 12764.81, 2718.44, 0.00, 0.00, 0.00
46, 37759.45, 30837.22, 24522.34, -10660.64, 15126.23, -10108.15, 12478.15, 2504.62, 0.09, 0.95, 0.26
47, 37746.77, 30797.13, 24624.42, -10651.63, 15986.88, -10125.61, 12474.17, 2464.84, 0.00, 0.00, 0.00
48, 37925.28, 30874.44, 23792.49, -10354.65, 14510.17, -9875.65, 12757.55, 2673.74, 0.00, 0.00, 0.00
49, 37962.67, 30926.21, 23585.94, -10327.76, 13434.27, -9833.63, 12792.08, 2733.19, 0.00, 0.00, 0.00
50, 37787.97, 30848.78, 24388.95, -10626.82, 14767.35, -10086.13, 12502.13, 2524.99, 0.00, 0.00, 0.00
51, 37728.69, 30790.49, 24686.52, -10696.67, 16003.09, -10167.56, 12428.87, 2428.72, 0.00, 0.00, 0.00
52, 37895.21, 30858.55, 23912.25, -10410.55, 14839.52, -9929.54, 12700.37, 2618.17, 0.00, 0.00, 0.00
53, 37992.20, 30940.49, 23501.88, -10289.65, 13431.68, -9806.31, 12818.41, 2745.40, 0.00, 0.00, 0.00
54, 37852.66, 30896.28, 24230.45, -10548.44, 14402.52, -10019.79, 12562.91, 2581.98, 0.00, 0.00, 0.00
55, 37749.79, 30818.49, 24742.35, -10696.54, 15914.22, -10169.64, 12411.43, 2434.17, 0.00, 0.00, 0.00
56, 37877.51, 30853.39, 24116.53, -10452.61, 15123.12, -9970.04, 12641.48, 2577.56, 0.09, 0.95, 0.26
57, 37998.50, 30938.90, 23590.61, -10269.91, 13468.80, -9797.80, 12817.58, 2733.75, 0.00, 0.00, 0.00
58, 37880.28, 30906.85, 24218.99, -10493.94, 14002.45, -9971.02, 12605.15, 2601.43, 0.00, 0.00, 0.00
59, 37753.79, 30828.73, 24865.89, -10685.18, 15661.49, -10153.88, 12403.83, 2426.04, 0.00, 0.00, 0.00
60, 37847.61, 30838.39, 24378.22, -10498.55, 15290.47, -10008.55, 12578.09, 2522.33, 0.00, 0.00, 0.00
61, 37993.79, 30922.95, 23668.39, -10276.26, 13538.96, -9801.33, 12807.46, 2703.42, 0.00, 0.00, 0.00
62, 37926.77, 30923.62, 24056.71, -10433.17, 13617.26, -9913.78, 12661.95, 2630.33, 0.00, 0.00, 0.00
63, 37760.95, 30824.06, 24843.61, -10699.71, 15359.18, -10153.66, 12401.62, 2417.07, 0.00, 0.00, 0.00
64, 37824.98, 30822.07, 24586.18, -10564.86, 15460.72, -10055.98, 12529.40, 2472.68, 0.00, 0.00, 0.00
65, 38003.73, 30923.53, 23792.60, -10281.24, 13703.99, -9803.74, 12805.69, 2693.54, 0.00, 0.00, 0.00
66, 37953.66, 30928.53, 23981.83, -10392.31, 13365.25, -9880.16, 12701.69, 2652.79, 0.10, 0.96, 0.26
67, 37791.30, 30845.76, 24804.11, -10664.93, 15058.28, -10118.46, 12435.12, 2442.26, 0.00, 0.00, 0.00
68, 37820.54, 30831.30, 24718.10, -10594.86, 15588.31, -10073.80, 12499.25, 2451.63, 0.00, 0.00, 0.00
69, 37992.31, 30911.97, 23887.04, -10309.27, 13955.58, -9824.13, 12774.65, 2663.46, 0.00, 0.00, 0.00
70, 37985.74, 30939.69, 23865.13, -10339.85, 13171.55, -9835.06, 12743.65, 2676.13, 0.00, 0.00, 0.00
71, 37805.83, 30856.31, 24689.27, -10629.48, 14687.80, -10088.19, 12453.94, 2464.50, 0.00, 0.00, 0.00
72, 37781.62, 30807.41, 24802.86, -10640.97, 15646.11, -10116.98, 12434.95, 2405.03, 0.00, 0.00, 0.00
73, 37971.43, 30903.03, 23988.54, -10330.89, 14224.36, -9851.78, 12737.01, 2612.25, 0.00, 0.00, 0.00
74, 38015.49, 30952.27, 23749.15, -10287.48, 13045.62, -9794.40, 12781.78, 2693.63, 0.00, 0.00, 0.00
75, 37849.71, 30880.32, 24493.55, -10576.62, 14265.02, -10039.87, 12499.81, 2501.96, 0.00, 0.00, 0.00
76, 37775.88, 30813.22, 24792.82, -10671.46, 15558.00, -10139.80, 12402.74, 2382.32, 0.09, 0.96, 0.26
77, 37929.50, 30872.36, 24049.69, -10402.75, 14475.01, -9916.78, 12655.87, 2555.01, 0.00, 0.00, 0.00
78, 38019.40, 30947.06, 23614.57, -10279.48, 12996.38, -9793.62, 12776.50, 2676.11, 0.00, 0.00, 0.00
79, 37885.82, 30910.29, 24274.40, -10527.65, 13853.66, -9996.55, 12536.42, 2517.16, 0.00, 0.00, 0.00
80, 37770.31, 30829.83, 24793.81, -10688.29, 15433.01, -10158.89, 12367.20, 2363.12, 0.00, 0.00, 0.00
81, 37907.24, 30873.86, 24215.95, -10437.62, 14780.63, -9966.02, 12599.75, 2511.73, 0.00, 0.00, 0.00
82, 38038.62, 30961.70, 23616.94, -10247.34, 13125.91, -9775.58, 12788.15, 2678.74, 0.00, 0.00, 0.00
83, 37916.25, 30921.85, 24121.94, -10475.86, 13597.79, -9956.72, 12565.43, 2541.93, 0.00, 0.00, 0.00
84, 37787.61, 30845.94, 24796.11, -10681.61, 15338.84, -10150.80, 12351.22, 2357.46, 0.00, 0.00, 0.00
85, 37880.15, 30861.23, 24406.63, -10503.96, 15137.41, -10014.72, 12512.08, 2447.72, 0.00, 0.00, 0.00
86, 38035.31, 30954.91, 23721.26, -10263.76, 13408.01, -9797.60, 12757.68, 2643.27, 0.09, 0.95, 0.26
87, 37977.38, 30963.31, 24040.26, -10406.50, 13412.54, -9901.40, 12625.45, 2582.99, 0.00, 0.00, 0.00
88, 37809.74, 30869.81, 24777.53, -10675.13, 15189.31, -10135.91, 12360.67, 2369.13, 0.00, 0.00, 0.00
89, 37860.52, 30864.45, 24514.88, -10560.37, 15435.80, -10059.58, 12465.79, 2404.27, 0.00, 0.00, 0.00
90, 38039.85, 30961.23, 23729.86, -10276.44, 13731.10, -9805.87, 12745.99, 2625.79, 0.00, 0.00, 0.00
91, 38002.39, 30978.53, 23890.55, -10363.97, 13293.41, -9863.82, 12667.16, 2606.71, 0.00, 0.00, 0.00
92, 37829.21, 30892.55, 24728.25, -10653.27, 14962.88, -10118.48, 12384.30, 2388.46, 0.00, 0.00, 0.00
93, 37833.48, 30860.25, 24735.63, -10617.53, 15644.19, -10106.74, 12410.38, 2366.89, 0.00, 0.00, 0.00
94, 38004.18, 30937.54, 23953.51, -10331.38, 14100.35, -9860.58, 12684.70, 2567.75, 0.00, 0.00, 0.00
95, 38007.80, 30967.71, 23894.86, -10348.68, 13237.89, -9858.62, 12668.61, 2590.57, 0.08, 0.95, 0.25
96, 37829.59, 30880.81, 24715.87, -10646.05, 14702.04, -10115.30, 12376.34, 2376.95, 0.00, 0.00, 0.00
97, 37807.48, 30844.82, 24921.17, -10668.58, 15746.33, -10149.86, 12349.29, 2319.84, 0.00, 0.00, 0.00
98, 37975.21, 30917.58, 24170.68, -10385.60, 14440.39, -9908.21, 12628.53, 2507.64, 0.00, 0.00, 0.00
99, 38016.88, 30964.65, 23911.18, -10332.56, 13222.58, -9843.10, 12684.77, 2589.76, 0.00, 0.00, 0.00
100, 37857.39, 30900.37, 24668.12, -10612.79, 14378.00, -10075.63, 12416.26, 2402.50, 0.00, 0.00, 0.00
101, 37783.79, 30841.00, 25074.05, -10718.33, 15748.23, -10182.16, 12313.64, 2282.47, 0.00, 0.00, 0.00
102, 37919.98, 30884.52, 24420.29, -10468.98, 14794.98, -9978.02, 12552.74, 2438.26, 0.00, 0.00, 0.00
103, 38011.26, 30955.04, 23980.16, -10337.08, 13307.60, -9849.70, 12681.28, 2563.21, 0.00, 0.00, 0.00
104, 37883.28, 30916.44, 24635.27, -10577.20, 14084.26, -10047.76, 12446.39, 2409.90, 0.00, 0.00, 0.00
105, 37769.44, 30841.32, 25209.71, -10748.55, 15692.47, -10214.28, 12266.77, 2243.85, 0.09, 0.95, 0.25
106, 37897.56, 30886.15, 24684.66, -10509.39, 15131.55, -10024.47, 12482.58, 2384.57, 0.00, 0.00, 0.00
107, 38020.56, 30964.45, 24091.11, -10316.98, 13463.80, -9844.92, 12670.06, 2553.31, 0.00, 0.00, 0.00
108, 37912.45, 30930.68, 24573.80, -10516.25, 13814.36, -9999.23, 12479.11, 2437.93, 0.00, 0.00, 0.00
109, 37778.80, 30853.95, 25260.55, -10737.38, 15524.16, -10193.36, 12263.93, 2255.16, 0.00, 0.00, 0.00
110, 37866.67, 30869.52, 24899.46, -10578.95, 15401.78, -10067.83, 12419.23, 2335.60, 0.00, 0.00, 0.00
111, 38025.73, 30958.82, 24201.75, -10331.67, 13662.68, -9839.28, 12671.90, 2540.14, 0.00, 0.00, 0.00
112, 37951.83, 30946.08, 24486.42, -10483.82, 13567.84, -9950.71, 12533.27, 2466.27, 0.00, 0.00, 0.00
113, 37792.30, 30857.65, 25233.46, -10753.98, 15296.39, -10189.80, 12273.54, 2251.20, 0.00, 0.00, 0.00
114, 37829.88, 30847.42, 25064.87, -10666.79, 15631.20, -10132.02, 12357.00, 2271.99, 0.00, 0.00, 0.00
115, 38012.47, 30945.68, 24310.72, -10379.57, 13947.89, -9878.64, 12637.21, 2484.49, 0.10, 0.95, 0.26
116, 37998.16, 30975.58, 24409.91, -10437.86, 13391.13, -9908.06, 12584.50, 2480.19, 0.00, 0.00, 0.00
117, 37834.75, 30900.59, 25187.22, -10717.79, 14996.19, -10151.09, 12307.45, 2261.46, 0.00, 0.00, 0.00
118, 37824.67, 30860.27, 25210.35, -10699.27, 15750.71, -10155.22, 12315.70, 2225.36, 0.00, 0.00, 0.00
119, 37984.64, 30927.28, 24468.88, -10416.45, 14255.56, -9914.16, 12589.64, 2423.11, 0.00, 0.00, 0.00
120, 38013.57, 30979.58, 24374.91, -10399.82, 13300.36, -9885.37, 12608.19, 2469.17, 0.00, 0.00, 0.00
121, 37859.41, 30917.49, 25123.20, -10676.62, 14673.00, -10115.35, 12342.81, 2274.98, 0.00, 0.00, 0.00
122, 37809.90, 30859.80, 25335.84, -10737.49, 15813.68, -10178.98, 12280.47, 2183.30, 0.00, 0.00, 0.00
123, 37981.83, 30937.61, 24646.15, -10449.24, 14600.00, -9935.57, 12559.47, 2379.66, 0.00, 0.00, 0.00
124, 38039.18, 30991.05, 24375.65, -10377.00, 13336.75, -9852.63, 12641.10, 2469.44, 0.00, 0.00, 0.00
125, 37900.36, 30944.47, 25053.87, -10636.99, 14412.38, -10068.39, 12390.24, 2294.16, 0.10, 0.95, 0.26
126, 37816.07, 30882.62, 25436.13, -10755.01, 15845.73, -10194.76, 12262.03, 2156.47, 0.00, 0.00, 0.00
127, 37964.28, 30937.14, 24837.50, -10495.51, 14973.34, -9980.84, 12508.66, 2320.49, 0.00, 0.00, 0.00
128, 38065.89, 31006.21, 24408.75, -10352.05, 13435.37, -9843.75, 12652.07, 2454.74, 0.00, 0.00, 0.00
129, 37933.70, 30961.26, 24968.11, -10589.12, 14118.01, -10043.78, 12422.12, 2301.16, 0.00, 0.00, 0.00
130, 37805.76, 30872.99, 25481.28, -10778.57, 15761.67, -10216.40, 12232.53, 2127.42, 0.00, 0.00, 0.00
131, 37926.46, 30912.01, 25010.89, -10559.37, 15303.10, -10035.58, 12441.72, 2263.38, 0.00, 0.00, 0.00
132, 38046.76, 30984.08, 24459.27, -10366.22, 13637.42, -9857.37, 12634.86, 2426.26, 0.00, 0.00, 0.00
133, 37965.62, 30975.54, 24883.79, -10535.54, 13875.54, -9986.29, 12476.70, 2331.15, 0.00, 0.00, 0.00
134, 37821.03, 30892.95, 25517.71, -10773.99, 15593.90, -10201.16, 12246.79, 2137.63, 0.00, 0.00, 0.00
135, 37882.72, 30892.28, 25185.12, -10642.76, 15591.48, -10103.68, 12373.50, 2195.52, 0.10, 0.96, 0.26
136, 38040.23, 30983.50, 24525.43, -10389.11, 13875.90, -9876.25, 12625.47, 2393.60, 0.00, 0.00, 0.00
137, 37986.07, 30989.69, 24774.63, -10504.51, 13666.10, -9958.57, 12517.22, 2347.00, 0.00, 0.00, 0.00
138, 37826.04, 30902.27, 25469.70, -10775.60, 15359.02, -10198.07, 12251.66, 2132.65, 0.00, 0.00, 0.00
139, 37857.02, 30881.75, 25326.56, -10702.24, 15784.76, -10153.75, 12315.70, 2138.26, 0.00, 0.00, 0.00
140, 38024.72, 30964.25, 24625.38, -10421.99, 14158.78, -9909.67, 12587.29, 2342.42, 0.00, 0.00, 0.00
141, 38006.26, 30981.73, 24683.54, -10474.63, 13522.60, -9934.93, 12541.29, 2339.76, 0.00, 0.00, 0.00
142, 37853.84, 30915.99, 25396.05, -10744.10, 15072.97, -10170.56, 12278.66, 2137.52, 0.00, 0.00, 0.00
143, 37853.80, 30896.95, 25435.84, -10727.52, 15915.89, -10172.97, 12287.67, 2109.02, 0.00, 0.00, 0.00
144, 38018.89, 30968.12, 24739.71, -10445.71, 14502.79, -9928.02, 12563.09, 2308.58, 0.00, 0.00, 0.00
145, 38041.48, 31001.15, 24618.12, -10431.71, 13487.78, -9900.35, 12581.37, 2347.74, 0.09, 0.95, 0.26
146, 37892.71, 30941.38, 25308.12, -10697.92, 14790.51, -10122.68, 12321.58, 2165.06, 0.00, 0.00, 0.00
147, 37848.74, 30901.87, 25525.74, -10755.37, 15976.42, -10189.85, 12257.38, 2082.94, 0.00, 0.00, 0.00
148, 37985.89, 30949.19, 24877.11, -10502.46, 14838.45, -9978.44, 12501.46, 2248.50, 0.00, 0.00, 0.00
149, 38044.97, 30996.41, 24582.34, -10415.15, 13490.64, -9890.45, 12589.49, 2339.65, 0.00, 0.00, 0.00
150, 37898.75, 30936.13, 25209.95, -10669.96, 14448.59, -10105.76, 12339.37, 2166.58, 0.00, 0.00, 0.00
151, 37808.96, 30867.40, 25593.28, -10797.72, 15912.00, -10241.14, 12203.18, 2028.00, 0.00, 0.00, 0.00
152, 37954.69, 30925.49, 25039.12, -10538.94, 15123.23, -10028.36, 12448.11, 2191.77, 0.00, 0.00, 0.00
153, 38058.85, 30995.56, 24608.93, -10376.28, 13548.29, -9873.30, 12607.46, 2340.18, 0.00, 0.00, 0.00
154, 37945.26, 30966.31, 25131.88, -10593.85, 14116.45, -10047.69, 12402.27, 2206.90, 0.00, 0.00, 0.00
155, 37837.81, 30905.15, 25659.71, -10776.60, 15750.13, -10213.47, 12220.61, 2046.15, 0.09, 0.95, 0.25
156, 37932.70, 30920.89, 25222.85, -10599.11, 15387.01, -10074.98, 12389.68, 2144.74, 0.00, 0.00, 0.00
157, 38059.34, 30992.21, 24650.04, -10388.89, 13693.10, -9885.04, 12595.41, 2315.06, 0.00, 0.00, 0.00
158, 37975.52, 30973.19, 25011.73, -10550.16, 13815.81, -10009.74, 12439.48, 2225.29, 0.00, 0.00, 0.00
159, 37832.32, 30891.99, 25628.91, -10789.32, 15508.22, -10224.78, 12204.19, 2027.26, 0.00, 0.00, 0.00
160, 37899.91, 30900.32, 25351.68, -10656.86, 15581.04, -10127.55, 12330.18, 2083.79, 0.00, 0.00, 0.00
161, 38061.02, 30987.34, 24710.10, -10392.40, 13889.60, -9893.35, 12587.81, 2286.74, 0.00, 0.00, 0.00
162, 38014.68, 30990.67, 24906.28, -10489.03, 13595.76, -9962.66, 12496.06, 2248.54, 0.00, 0.00, 0.00
163, 37842.93, 30905.09, 25579.83, -10765.76, 15283.21, -10201.87, 12223.57, 2035.73, 0.00, 0.00, 0.00
164, 37883.10, 30906.61, 25468.45, -10682.59, 15808.70, -10148.50, 12294.46, 2054.21, 0.00, 0.00, 0.00
165, 38051.59, 30990.74, 24788.13, -10399.37, 14231.71, -9901.35, 12566.60, 2273.64, 0.09, 0.95, 0.24
166, 38051.74, 31022.28, 24801.03, -10422.15, 13499.67, -9909.96, 12543.31, 2286.87, 0.00, 0.00, 0.00
167, 37892.82, 30950.30, 25483.54, -10696.16, 14973.39, -10146.78, 12274.13, 2082.78, 0.00, 0.00, 0.00
168, 37870.54, 30908.62, 25536.29, -10712.10, 15872.51, -10180.57, 12250.12, 2025.76, 0.00, 0.00, 0.00
169, 38025.03, 30970.89, 24850.71, -10440.81, 14499.49, -9953.32, 12508.84, 2211.17, 0.00, 0.00, 0.00
170, 38074.88, 31023.95, 24705.14, -10386.68, 13373.03, -9888.34, 12564.88, 2288.55, 0.00, 0.00, 0.00
171, 37905.18, 30943.78, 25386.46, -10679.01, 14583.91, -10132.76, 12285.10, 2089.13, 0.00, 0.00, 0.00
172, 37846.55, 30891.29, 25658.91, -10760.29, 15818.84, -10221.61, 12201.06, 1988.37, 0.00, 0.00, 0.00
173, 37991.04, 30947.98, 25054.14, -10500.63, 14765.92, -10004.26, 12451.06, 2159.36, 0.00, 0.00, 0.00
174, 38069.63, 31013.36, 24747.45, -10383.77, 13374.75, -9884.41, 12570.02, 2278.16, 0.00, 0.00, 0.00
175, 37943.05, 30974.98, 25350.28, -10619.18, 14234.44, -10075.09, 12343.71, 2122.43, 0.09, 0.95, 0.24
176, 37847.38, 30911.19, 25767.34, -10768.49, 15730.24, -10218.17, 12191.49, 1974.91, 0.00, 0.00, 0.00
177, 37978.99, 30957.77, 25258.05, -10535.14, 15059.29, -10026.10, 12414.54, 2122.97, 0.00, 0.00, 0.00
178, 38089.09, 31029.09, 24815.33, -10360.97, 13479.02, -9860.34, 12586.96, 2273.35, 0.00, 0.00, 0.00
179, 37979.90, 30995.45, 25289.61, -10561.91, 13937.05, -10021.09, 12393.93, 2144.72, 0.00, 0.00, 0.00
180, 37847.29, 30913.13, 25816.96, -10773.18, 15582.16, -10213.50, 12191.83, 1964.18, 0.00, 0.00, 0.00
181, 37927.11, 30921.25, 25430.23, -10613.61, 15331.26, -10089.15, 12345.38, 2047.78, 0.00, 0.00, 0.00
182, 38071.75, 30996.19, 24867.41, -10387.24, 13643.19, -9882.87, 12575.07, 2228.96, 0.00, 0.00, 0.00
183, 38021.93, 31007.34, 25193.16, -10514.17, 13644.98, -9971.56, 12462.75, 2171.02, 0.00, 0.00, 0.00
184, 37878.45, 30933.61, 25801.67, -10759.79, 15312.64, -10190.63, 12220.73, 1974.35, 0.09, 0.96, 0.23
185, 37915.80, 30919.53, 25559.44, -10663.59, 15498.99, -10126.66, 12305.60, 2002.43, 0.00, 0.00, 0.00
186, 38070.43, 30998.16, 24929.35, -10402.37, 13846.39, -9895.68, 12560.99, 2204.62, 0.00, 0.00, 0.00
187, 38045.77, 31017.09, 25088.13, -10473.45, 13424.84, -9940.33, 12492.19, 2185.11, 0.00, 0.00, 0.00
188, 37887.12, 30940.20, 25739.24, -10738.96, 15024.93, -10176.73, 12227.81, 1972.99, 0.00, 0.00, 0.00
189, 37894.36, 30917.56, 25667.98, -10698.59, 15628.88, -10158.29, 12259.84, 1965.90, 0.00, 0.00, 0.00
190, 38049.95, 30986.51, 25019.85, -10429.90, 14117.61, -9926.66, 12517.33, 2159.76, 0.00, 0.00, 0.00
191, 38066.96, 31025.85, 25011.67, -10433.06, 13297.41, -9911.93, 12518.83, 2187.54, 0.00, 0.00, 0.00
192, 37900.06, 30944.96, 25664.38, -10721.19, 14705.66, -10156.90, 12243.86, 1979.14, 0.00, 0.00, 0.00
193, 37868.10, 30901.71, 25757.77, -10753.29, 15686.14, -10206.54, 12208.39, 1908.70, 0.00, 0.00, 0.00
194, 38032.21, 30977.26, 25132.93, -10470.00, 14399.64, -9961.66, 12485.55, 2114.32, 0.09, 0.95, 0.24
195, 38083.88, 31031.57, 24954.89, -10405.65, 13236.01, -9888.43, 12550.04, 2197.67, 0.00, 0.00, 0.00
196, 37935.83, 30967.87, 25551.71, -10671.66, 14359.74, -10110.01, 12291.63, 2012.31, 0.00, 0.00, 0.00
197, 37866.40, 30909.27, 25804.60, -10768.47, 15666.40, -10215.04, 12185.72, 1895.27, 0.00, 0.00, 0.00
198, 38012.25, 30968.81, 25246.54, -10509.10, 14713.66, -10002.36, 12430.94, 2063.83, 0.00, 0.00, 0.00
199, 38091.73, 31025.14, 24923.47, -10390.03, 13286.46, -9884.19, 12553.07, 2185.13, 0.00, 0.00, 0.00
200, 37973.60, 30987.70, 25451.66, -10613.41, 14043.80, -10068.54, 12341.14, 2039.24, 0.00, 0.00, 0.00
201, 37870.78, 30918.23, 25846.35, -10778.28, 15569.02, -10224.45, 12175.13, 1883.22, 0.00, 0.00, 0.00
202, 37977.40, 30944.96, 25373.72, -10577.00, 15009.22, -10061.59, 12369.16, 2005.15, 0.00, 0.00, 0.00
203, 38094.28, 31017.72, 24916.03, -10391.79, 13409.75, -9891.34, 12552.61, 2167.69, 0.00, 0.00, 0.00
204, 37996.36, 30993.58, 25325.96, -10576.22, 13757.59, -10041.10, 12372.47, 2052.76, 0.09, 0.95, 0.23
205, 37863.81, 30919.79, 25833.99, -10785.77, 15403.91, -10236.76, 12161.16, 1865.61, 0.00, 0.00, 0.00
206, 37943.63, 30937.18, 25496.63, -10622.62, 15258.84, -10112.49, 12311.05, 1952.11, 0.00, 0.00, 0.00
207, 38082.21, 31010.63, 24949.53, -10388.62, 13603.14, -9903.88, 12535.01, 2138.23, 0.00, 0.00, 0.00
208, 38037.53, 31018.88, 25222.04, -10496.89, 13514.36, -9984.55, 12429.65, 2085.86, 0.00, 0.00, 0.00
209, 37904.73, 30957.43, 25817.36, -10731.47, 15155.55, -10194.09, 12199.63, 1898.18, 0.00, 0.00, 0.00
210, 37939.40, 30946.12, 25633.18, -10647.23, 15445.86, -10138.48, 12278.17, 1926.18, 0.00, 0.00, 0.00
211, 38083.57, 31016.93, 25043.86, -10393.58, 13844.38, -9915.61, 12527.06, 2117.63, 0.00, 0.00, 0.00
212, 38047.38, 31021.83, 25172.47, -10468.80, 13357.02, -9967.20, 12456.67, 2094.27, 0.00, 0.00, 0.00
213, 37894.74, 30949.83, 25798.34, -10732.19, 14911.99, -10203.06, 12198.22, 1889.86, 0.00, 0.00, 0.00
214, 37901.32, 30931.59, 25779.03, -10696.76, 15602.63, -10192.13, 12221.44, 1874.60, 0.09, 0.96, 0.24
215, 38064.57, 31007.84, 25167.77, -10410.91, 14148.36, -9947.62, 12495.25, 2083.23, 0.00, 0.00, 0.00
216, 38085.49, 31047.67, 25119.94, -10395.24, 13250.31, -9922.25, 12510.11, 2127.01, 0.00, 0.00, 0.00
217, 37932.63, 30979.14, 25732.29, -10663.21, 14587.78, -10154.71, 12250.34, 1933.00, 0.00, 0.00, 0.00
218, 37887.55, 30928.38, 25851.45, -10716.86, 15649.30, -10221.03, 12193.39, 1853.00, 0.00, 0.00, 0.00
219, 38038.49, 30991.10, 25260.89, -10450.71, 14452.26, -9995.01, 12450.32, 2038.88, 0.00, 0.00, 0.00
220, 38099.20, 31045.03, 25059.97, -10375.25, 13223.98, -9914.16, 12527.86, 2125.25, 0.00, 0.00, 0.00
221, 37966.54, 30994.56, 25631.33, -10619.74, 14246.87, -10122.10, 12291.18, 1953.36, 0.00, 0.00, 0.00
222, 37883.50, 30928.42, 25904.89, -10744.64, 15590.97, -10249.33, 12164.06, 1818.00, 0.00, 0.00, 0.00
223, 38016.32, 30969.91, 25366.66, -10519.36, 14730.38, -10061.35, 12380.81, 1962.17, 0.00, 0.00, 0.00
224, 38114.08, 31039.84, 25037.39, -10372.80, 13257.45, -9918.61, 12528.82, 2103.03, 0.09, 0.95, 0.24
225, 37991.15, 31006.43, 25520.84, -10573.94, 13901.71, -10088.21, 12330.16, 1962.71, 0.00, 0.00, 0.00
226, 37869.91, 30916.84, 25890.27, -10746.52, 15398.61, -10252.23, 12163.68, 1805.84, 0.00, 0.00, 0.00
227, 37970.89, 30936.29, 25434.18, -10550.81, 14879.42, -10102.63, 12352.47, 1910.54, 0.00, 0.00, 0.00
228, 38083.97, 31000.59, 24975.17, -10358.45, 13238.11, -9930.79, 12539.53, 2068.14, 0.00, 0.00, 0.00
229, 37994.93, 30973.24, 25340.71, -10532.10, 13474.55, -10063.67, 12374.55, 1969.43, 0.00, 0.00, 0.00
230, 37860.23, 30896.12, 25837.79, -10761.34, 15112.42, -10270.94, 12147.59, 1774.30, 0.00, 0.00, 0.00
231, 37917.90, 30905.80, 25546.14, -10639.47, 15120.69, -10177.96, 12260.62, 1831.01, 0.00, 0.00, 0.00
232, 38066.29, 30994.29, 25028.57, -10400.56, 13553.45, -9961.73, 12494.65, 2025.72, 0.00, 0.00, 0.00
233, 38034.98, 31010.41, 25256.33, -10491.06, 13412.79, -10023.01, 12412.91, 1988.43, 0.00, 0.00, 0.00
234, 37885.54, 30932.82, 25811.44, -10741.69, 15039.50, -10245.70, 12168.85, 1788.63, 0.09, 0.95, 0.25
235, 37907.28, 30916.71, 25649.95, -10677.52, 15438.42, -10208.20, 12224.91, 1798.31, 0.00, 0.00, 0.00
236, 38066.50, 31003.39, 25089.23, -10412.47, 13910.45, -9974.60, 12480.12, 2000.48, 0.00, 0.00, 0.00
237, 38070.77, 31038.57, 25177.47, -10438.76, 13333.06, -9984.43, 12457.39, 2010.11, 0.00, 0.00, 0.00
238, 37926.30, 30972.28, 25770.53, -10695.98, 14800.68, -10211.93, 12204.19, 1811.92, 0.00, 0.00, 0.00
239, 37907.42, 30933.88, 25770.09, -10700.09, 15567.63, -10235.98, 12191.18, 1765.85, 0.00, 0.00, 0.00
240, 38056.53, 31006.23, 25202.17, -10437.24, 14209.21, -10010.63, 12441.70, 1953.61, 0.00, 0.00, 0.00
241, 38086.99, 31047.33, 25134.16, -10407.35, 13253.62, -9975.99, 12472.50, 2003.63, 0.00, 0.00, 0.00
242, 37949.46, 30986.58, 25711.77, -10654.05, 14479.37, -10187.59, 12231.95, 1820.08, 0.00, 0.00, 0.00
243, 37879.37, 30918.77, 25862.87, -10737.53, 15591.26, -10276.66, 12142.88, 1720.82, 0.00, 0.00, 0.00
244, 38009.90, 30970.91, 25325.11, -10496.54, 14516.92, -10068.25, 12380.88, 1893.86, 0.09, 0.96, 0.24
245, 38094.25, 31044.81, 25123.05, -10380.44, 13255.32, -9951.58, 12495.29, 2004.97, 0.00, 0.00, 0.00
246, 37969.82, 30995.01, 25661.12, -10611.85, 14163.09, -10146.08, 12270.73, 1852.22, 0.00, 0.00, 0.00
247, 37876.77, 30923.88, 25948.99, -10748.37, 15529.81, -10283.72, 12126.74, 1711.94, 0.00, 0.00, 0.00
248, 38017.86, 30992.01, 25487.34, -10508.20, 14775.26, -10083.07, 12361.74, 1873.05, 0.00, 0.00, 0.00
249, 38118.53, 31060.99, 25157.69, -10355.83, 13309.32, -9940.87, 12512.28, 2008.71, 0.00, 0.00, 0.00
250, 38000.11, 31005.89, 25584.21, -10568.46, 13865.19, -10123.42, 12304.34, 1859.37, 0.00, 0.00, 0.00
251, 37888.04, 30934.52, 25987.68, -10747.08, 15414.32, -10294.36, 12127.56, 1704.16, 0.00, 0.00, 0.00
252, 37983.84, 30968.83, 25610.09, -10562.63, 15064.72, -10145.61, 12305.01, 1820.50, 0.00, 0.00, 0.00
253, 38117.30, 31047.82, 25172.38, -10349.84, 13475.29, -9951.87, 12516.40, 1998.54, 0.00, 0.00, 0.00
254, 38036.70, 31024.18, 25492.28, -10503.78, 13612.01, -10077.60, 12367.76, 1903.34, 0.09, 0.95, 0.24
255, 37899.93, 30940.51, 25978.29, -10730.33, 15221.56, -10287.97, 12144.53, 1708.05, 0.00, 0.00, 0.00
0, 37953.95, 30946.57, 25716.98, -10618.00, 15288.73, -10207.42, 12248.40, 1757.14, 0.00, 0.00, 0.00
1, 38094.23, 31024.64, 25191.44, -10377.69, 13700.19, -9992.26, 12484.43, 1945.34, 0.00, 0.00, 0.00
2, 38064.06, 31035.24, 25367.80, -10458.13, 13405.77, -10046.75, 12412.35, 1913.56, 0.00, 0.00, 0.00
3, 37919.31, 30956.58, 25899.84, -10705.99, 14958.32, -10271.79, 12166.55, 1709.93, 0.00, 0.00, 0.00
4, 37937.93, 30942.55, 25777.19, -10649.13, 15429.68, -10246.93, 12213.75, 1710.89, 0.00, 0.00, 0.00
5, 38081.25, 31011.75, 25221.13, -10395.10, 13953.72, -10026.90, 12458.15, 1902.40, 0.00, 0.00, 0.00
6, 38088.18, 31039.62, 25247.17, -10407.33, 13271.59, -10020.96, 12445.25, 1916.86, 0.00, 0.00, 0.00
7, 37952.55, 30980.93, 25795.50, -10650.09, 14673.54, -10238.17, 12208.17, 1727.07, 0.00, 0.00, 0.00
8, 37929.61, 30949.86, 25803.32, -10660.13, 15530.71, -10267.36, 12186.28, 1677.45, 0.08, 0.95, 0.24
9, 38076.62, 31024.55, 25241.67, -10398.08, 14248.21, -10035.98, 12436.62, 1871.91, 0.00, 0.00, 0.00
10, 38113.77, 31065.30, 25114.33, -10355.54, 13222.89, -9984.84, 12480.19, 1928.98, 0.00, 0.00, 0.00
11, 37973.85, 31000.59, 25639.46, -10608.27, 14375.90, -10199.37, 12241.80, 1750.74, 0.00, 0.00, 0.00
12, 37903.91, 30935.44, 25791.05, -10701.66, 15554.65, -10299.50, 12146.07, 1647.95, 0.00, 0.00, 0.00
13, 38043.65, 30997.60, 25264.40, -10453.62, 14558.45, -10092.28, 12384.83, 1814.16, 0.00, 0.00, 0.00
14, 38129.73, 31065.01, 25012.14, -10326.59, 13243.25, -9971.85, 12515.28, 1932.64, 0.00, 0.00, 0.00
15, 38010.97, 31017.80, 25483.47, -10549.49, 14067.83, -10156.34, 12300.75, 1789.77, 0.00, 0.00, 0.00
16, 37904.85, 30940.27, 25769.71, -10705.43, 15492.87, -10309.65, 12145.92, 1639.25, 0.00, 0.00, 0.00
17, 38010.91, 30978.13, 25305.44, -10502.39, 14858.08, -10145.21, 12342.03, 1768.25, 0.08, 0.95, 0.25
18, 38121.93, 31054.73, 24926.06, -10325.57, 13361.36, -9984.08, 12512.89, 1920.10, 0.00, 0.00, 0.00
19, 38023.07, 31019.84, 25315.83, -10506.53, 13809.80, -10138.55, 12330.25, 1800.19, 0.00, 0.00, 0.00
20, 37903.93, 30944.67, 25734.43, -10699.87, 15371.88, -10318.88, 12137.06, 1626.31, 0.00, 0.00, 0.00
21, 37972.80, 30953.03, 25390.17, -10554.81, 15138.01, -10208.87, 12273.14, 1701.03, 0.00, 0.00, 0.00
22, 38124.34, 31048.09, 24924.61, -10317.12, 13538.29, -9998.47, 12501.04, 1890.38, 0.00, 0.00, 0.00
23, 38070.90, 31050.35, 25192.38, -10439.99, 13556.44, -10094.63, 12390.15, 1823.08, 0.00, 0.00, 0.00
24, 37928.88, 30971.07, 25675.20, -10679.66, 15154.64, -10313.56, 12156.24, 1627.30, 0.00, 0.00, 0.00
25, 37967.19, 30961.72, 25444.73, -10587.28, 15333.12, -10254.53, 12235.84, 1658.97, 0.00, 0.00, 0.00
26, 38125.57, 31052.90, 24916.96, -10326.10, 13771.71, -10016.89, 12494.76, 1871.82, 0.00, 0.00, 0.00
27, 38096.40, 31061.12, 25052.71, -10395.26, 13395.65, -10062.29, 12430.54, 1845.90, 0.08, 0.95, 0.24
28, 37948.14, 30984.86, 25588.50, -10647.72, 14917.40, -10284.75, 12181.79, 1643.57, 0.00, 0.00, 0.00
29, 37940.77, 30953.30, 25492.48, -10625.66, 15483.50, -10283.52, 12200.70, 1623.23, 0.00, 0.00, 0.00
30, 38091.21, 31028.36, 24920.81, -10369.26, 14038.44, -10062.00, 12450.06, 1809.62, 0.00, 0.00, 0.00
31, 38108.74, 31065.44, 24920.05, -10362.89, 13255.68, -10039.04, 12462.50, 1843.55, 0.00, 0.00, 0.00
32, 37960.88, 30993.22, 25458.12, -10623.72, 14585.74, -10259.83, 12214.16, 1659.24, 0.00, 0.00, 0.00
33, 37914.57, 30944.07, 25495.31, -10674.95, 15516.29, -10321.14, 12161.43, 1587.09, 0.00, 0.00, 0.00
34, 38068.51, 31020.11, 24951.27, -10405.88, 14287.99, -10086.60, 12416.68, 1774.39, 0.00, 0.00, 0.00
35, 38113.93, 31060.07, 24803.44, -10346.53, 13180.47, -10019.86, 12477.50, 1844.94, 0.00, 0.00, 0.00
36, 37969.29, 30991.68, 25308.16, -10588.16, 14248.43, -10236.88, 12237.42, 1663.28, 0.00, 0.00, 0.00
37, 37911.55, 30943.17, 25504.52, -10677.52, 15467.90, -10335.13, 12141.00, 1554.56, 0.09, 0.95, 0.25
38, 38043.32, 31002.45, 25017.72, -10441.17, 14561.02, -10136.20, 12368.61, 1713.91, 0.00, 0.00, 0.00
39, 38139.56, 31077.15, 24753.21, -10296.22, 13204.87, -9997.80, 12508.44, 1847.77, 0.00, 0.00, 0.00
40, 38035.27, 31043.20, 25211.16, -10497.70, 13935.62, -10166.11, 12312.37, 1709.01, 0.00, 0.00, 0.00
41, 37931.73, 30974.11, 25546.05, -10658.56, 15395.05, -10323.20, 12146.83, 1559.46, 0.00, 0.00, 0.00
42, 38028.50, 31001.40, 25124.10, -10468.46, 14853.52, -10171.81, 12324.15, 1675.24, 0.00, 0.00, 0.00
43, 38139.54, 31070.13, 24743.92, -10285.22, 13334.69, -10002.03, 12499.45, 1832.08, 0.00, 0.00, 0.00
44, 38043.38, 31034.03, 25093.12, -10462.67, 13675.67, -10148.76, 12331.14, 1721.67, 0.00, 0.00, 0.00
45, 37914.59, 30953.70, 25506.63, -10672.87, 15246.19, -10345.59, 12122.65, 1534.07, 0.00, 0.00, 0.00
46, 37987.41, 30969.66, 25187.58, -10529.06, 15105.91, -10235.04, 12263.37, 1610.35, 0.00, 0.00, 0.00
47, 38140.88, 31064.70, 24724.96, -10285.02, 13515.63, -10016.75, 12500.93, 1805.33, 0.09, 0.95, 0.25
48, 38086.12, 31060.41, 24967.81, -10395.89, 13442.20, -10101.63, 12392.92, 1750.59, 0.00, 0.00, 0.00
49, 37926.71, 30966.04, 25441.18, -10656.24, 15028.49, -10336.14, 12136.88, 1538.45, 0.00, 0.00, 0.00
50, 37960.95, 30961.88, 25242.47, -10573.87, 15290.05, -10277.69, 12213.08, 1560.78, 0.00, 0.00, 0.00
51, 38123.20, 31054.87, 24725.30, -10312.40, 13738.03, -10044.52, 12470.08, 1765.74, 0.00, 0.00, 0.00
52, 38114.66, 31079.36, 24835.56, -10358.78, 13236.21, -10072.68, 12429.98, 1759.84, 0.00, 0.00, 0.00
53, 37953.77, 30990.00, 25356.29, -10629.10, 14715.38, -10298.43, 12166.39, 1558.99, 0.00, 0.00, 0.00
54, 37943.07, 30954.59, 25290.21, -10623.72, 15376.50, -10306.37, 12166.99, 1517.93, 0.00, 0.00, 0.00
55, 38091.02, 31025.52, 24763.03, -10367.10, 13990.98, -10078.04, 12425.51, 1726.09, 0.00, 0.00, 0.00
56, 38118.35, 31065.66, 24731.89, -10341.48, 13138.24, -10044.61, 12451.82, 1771.78, 0.00, 0.00, 0.00
57, 37968.55, 30994.27, 25241.62, -10601.28, 14415.49, -10268.32, 12193.90, 1579.06, 0.10, 0.95, 0.25
58, 37925.10, 30948.43, 25315.79, -10649.18, 15423.55, -10332.61, 12137.91, 1497.14, 0.00, 0.00, 0.00
59, 38074.39, 31017.36, 24808.29, -10391.17, 14288.24, -10117.63, 12383.31, 1676.20, 0.00, 0.00, 0.00
60, 38141.91, 31078.94, 24672.32, -10302.72, 13134.73, -10026.66, 12470.51, 1770.95, 0.00, 0.00, 0.00
61, 38008.85, 31022.34, 25150.38, -10540.39, 14129.41, -10227.46, 12242.56, 1603.27, 0.00, 0.00, 0.00
62, 37929.10, 30959.47, 25358.46, -10662.54, 15418.23, -10348.79, 12120.61, 1476.47, 0.00, 0.00, 0.00
63, 38050.29, 31009.36, 24905.07, -10444.99, 14604.27, -10167.25, 12327.19, 1617.93, 0.00, 0.00, 0.00
64, 38143.12, 31074.80, 24625.27, -10300.22, 13207.06, -10021.49, 12475.67, 1757.45, 0.00, 0.00, 0.00
65, 38050.89, 31049.79, 25031.63, -10484.24, 13825.69, -10172.08, 12299.81, 1636.75, 0.00, 0.00, 0.00
66, 37944.50, 30983.23, 25353.74, -10653.11, 15306.63, -10326.66, 12125.22, 1475.80, 0.00, 0.00, 0.00
67, 38039.38, 31012.87, 24979.44, -10476.64, 14872.00, -10180.75, 12289.86, 1580.47, 0.10, 0.95, 0.26
68, 38173.45, 31101.87, 24606.70, -10272.17, 13333.13, -9995.12, 12488.88, 1751.39, 0.00, 0.00, 0.00
69, 38092.54, 31080.52, 24919.98, -10431.07, 13569.23, -10124.67, 12339.68, 1654.63, 0.00, 0.00, 0.00
70, 37952.41, 30994.80, 25320.08, -10656.86, 15147.13, -10333.03, 12118.13, 1459.88, 0.00, 0.00, 0.00
71, 38020.94, 31008.22, 25054.40, -10528.32, 15100.12, -10235.56, 12242.25, 1522.24, 0.00, 0.00, 0.00
72, 38169.89, 31096.06, 24610.52, -10288.04, 13517.98, -10019.19, 12480.41, 1713.73, 0.00, 0.00, 0.00
73, 38125.66, 31096.71, 24800.36, -10391.08, 13335.36, -10092.30, 12387.05, 1668.80, 0.00, 0.00, 0.00
74, 37990.05, 31026.41, 25260.49, -10626.18, 14879.47, -10304.47, 12151.73, 1475.04, 0.00, 0.00, 0.00
75, 37996.60, 31001.38, 25120.48, -10583.37, 15248.20, -10284.86, 12190.48, 1471.57, 0.00, 0.00, 0.00
76, 38134.85, 31068.25, 24627.93, -10344.66, 13757.63, -10075.61, 12427.55, 1653.69, 0.00, 0.00, 0.00
77, 38142.00, 31096.73, 24702.86, -10363.39, 13177.69, -10076.61, 12415.68, 1673.90, 0.10, 0.95, 0.26
78, 37990.23, 31017.72, 25192.72, -10622.15, 14604.67, -10304.36, 12162.83, 1475.24, 0.00, 0.00, 0.00
79, 37968.50, 30979.79, 25162.79, -10632.10, 15350.13, -10332.18, 12146.05, 1426.33, 0.00, 0.00, 0.00
80, 38131.16, 31066.98, 24671.25, -10357.55, 14012.51, -10095.28, 12409.42, 1627.27, 0.00, 0.00, 0.00
81, 38176.42, 31121.21, 24628.16, -10303.39, 13066.90, -10037.74, 12461.79, 1697.97, 0.00, 0.00, 0.00
82, 38023.54, 31040.51, 25110.53, -10565.80, 14277.00, -10267.43, 12205.57, 1499.24, 0.00, 0.00, 0.00
83, 37972.19, 30992.35, 25213.35, -10633.44, 15354.24, -10340.65, 12133.11, 1410.24, 0.00, 0.00, 0.00
84, 38104.98, 31050.10, 24743.02, -10391.04, 14296.09, -10137.23, 12369.10, 1581.12, 0.00, 0.00, 0.00
85, 38174.61, 31108.06, 24572.97, -10291.66, 13073.40, -10037.14, 12469.28, 1684.79, 0.00, 0.00, 0.00
86, 38050.07, 31053.34, 25015.38, -10522.78, 13977.37, -10233.63, 12246.57, 1520.01, 0.00, 0.00, 0.00
87, 37967.03, 30993.22, 25231.30, -10658.76, 15321.65, -10366.54, 12113.66, 1385.54, 0.10, 0.94, 0.26
88, 38079.57, 31038.10, 24815.53, -10447.45, 14612.81, -10189.62, 12316.33, 1529.04, 0.00, 0.00, 0.00
89, 38177.88, 31108.51, 24533.70, -10286.54, 13193.03, -10042.84, 12474.06, 1670.88, 0.00, 0.00, 0.00
90, 38073.09, 31068.77, 24904.96, -10476.44, 13730.01, -10203.39, 12293.12, 1542.54, 0.00, 0.00, 0.00
91, 37954.51, 30986.51, 25226.02, -10660.40, 15231.35, -10377.78, 12110.60, 1373.34, 0.00, 0.00, 0.00
92, 38039.07, 31009.00, 24884.46, -10488.47, 14885.68, -10237.23, 12276.38, 1481.67, 0.00, 0.00, 0.00
93, 38157.62, 31079.79, 24500.39, -10288.37, 13347.10, -10055.31, 12472.56, 1652.49, 0.00, 0.00, 0.00
94, 38099.87, 31073.64, 24790.12, -10412.54, 13471.91, -10155.16, 12350.52, 1580.16, 0.00, 0.00, 0.00
95, 37969.85, 30999.03, 25195.69, -10638.74, 15032.15, -10359.79, 12135.10, 1389.90, 0.00, 0.00, 0.00
96, 38020.94, 31004.69, 24957.82, -10535.63, 15092.21, -10283.97, 12234.88, 1437.15, 0.10, 0.95, 0.27
97, 38166.23, 31089.46, 24519.04, -10297.60, 13540.44, -10067.85, 12470.75, 1627.45, 0.00, 0.00, 0.00
98, 38137.62, 31099.84, 24686.29, -10373.31, 13264.04, -10121.18, 12398.91, 1593.84, 0.00, 0.00, 0.00
99, 37988.73, 31019.21, 25141.78, -10622.15, 14789.77, -10346.47, 12156.58, 1393.81, 0.00, 0.00, 0.00
100, 38001.74, 31001.33, 25018.44, -10574.10, 15252.45, -10325.57, 12196.52, 1391.37, 0.00, 0.00, 0.00
101, 38146.69, 31078.49, 24547.09, -10306.32, 13801.78, -10100.04, 12446.59, 1586.77, 0.00, 0.00, 0.00
102, 38154.49, 31107.99, 24603.19, -10311.17, 13147.50, -10096.57, 12441.96, 1614.00, 0.00, 0.00, 0.00
103, 38011.18, 31034.10, 25084.45, -10568.84, 14529.50, -10323.89, 12194.96, 1422.53, 0.00, 0.00, 0.00
104, 37985.69, 31000.84, 25084.56, -10589.74, 15366.73, -10366.11, 12162.52, 1367.77, 0.00, 0.00, 0.00
105, 38127.47, 31066.64, 24603.26, -10334.08, 14103.57, -10141.37, 12406.71, 1561.09, 0.00, 0.00, 0.00
106, 38184.22, 31120.51, 24522.84, -10269.04, 13087.15, -10068.70, 12471.13, 1636.24, 0.10, 0.95, 0.27
107, 38043.18, 31055.47, 24979.84, -10516.56, 14208.62, -10278.00, 12229.24, 1453.65, 0.00, 0.00, 0.00
108, 37967.07, 30988.86, 25092.76, -10617.48, 15357.48, -10385.38, 12126.36, 1338.33, 0.00, 0.00, 0.00
109, 38110.55, 31056.43, 24647.09, -10368.33, 14367.61, -10176.62, 12369.28, 1514.64, 0.00, 0.00, 0.00
110, 38179.73, 31111.95, 24450.91, -10257.86, 13085.78, -10072.50, 12479.89, 1622.58, 0.00, 0.00, 0.00
111, 38058.34, 31062.51, 24855.63, -10475.95, 13887.94, -10256.41, 12271.02, 1471.15, 0.00, 0.00, 0.00
112, 37955.81, 30986.20, 25079.48, -10632.55, 15275.16, -10411.29, 12114.24, 1320.00, 0.00, 0.00, 0.00
113, 38069.96, 31032.33, 24709.36, -10420.74, 14645.22, -10243.60, 12313.84, 1452.91, 0.00, 0.00, 0.00
114, 38178.30, 31105.33, 24414.47, -10251.98, 13175.06, -10082.94, 12484.21, 1609.26, 0.00, 0.00, 0.00
115, 38095.38, 31083.72, 24758.31, -10420.25, 13601.24, -10216.00, 12330.16, 1506.60, 0.00, 0.00, 0.00
116, 37975.66, 31007.21, 25091.71, -10625.88, 15122.38, -10402.86, 12133.26, 1332.23, 0.11, 0.95, 0.27
117, 38057.62, 31033.47, 24778.38, -10477.49, 14883.40, -10286.38, 12278.06, 1416.03, 0.00, 0.00, 0.00
118, 38193.18, 31117.94, 24406.41, -10259.20, 13330.78, -10086.31, 12497.35, 1601.70, 0.00, 0.00, 0.00
119, 38130.38, 31101.42, 24661.69, -10389.25, 13361.34, -10185.58, 12378.44, 1529.04, 0.00, 0.00, 0.00
120, 37993.72, 31022.92, 25063.41, -10622.51, 14916.08, -10397.58, 12148.69, 1333.35, 0.00, 0.00, 0.00
121, 38027.16, 31014.32, 24849.51, -10540.23, 15077.99, -10340.32, 12220.53, 1365.33, 0.00, 0.00, 0.00
122, 38168.02, 31090.31, 24407.79, -10300.17, 13544.91, -10128.47, 12451.75, 1549.56, 0.00, 0.00, 0.00
123, 38151.72, 31111.53, 24544.47, -10353.95, 13165.13, -10165.91, 12393.55, 1529.82, 0.00, 0.00, 0.00
124, 38001.16, 31028.27, 24990.66, -10607.60, 14650.74, -10388.44, 12145.13, 1337.89, 0.00, 0.00, 0.00
125, 37990.88, 30995.30, 24889.74, -10581.20, 15199.81, -10379.79, 12166.19, 1327.65, 0.00, 0.00, 0.00
126, 38131.72, 31062.82, 24425.20, -10328.27, 13788.54, -10158.44, 12417.02, 1520.77, 0.11, 0.94, 0.27
127, 38155.19, 31099.28, 24442.88, -10328.50, 13030.26, -10143.58, 12422.72, 1547.95, 0.00, 0.00, 0.00
128, 38007.96, 31023.68, 24905.41, -10595.17, 14347.54, -10369.49, 12170.66, 1347.09, 0.00, 0.00, 0.00
129, 37972.98, 30986.54, 24930.60, -10634.60, 15262.35, -10417.41, 12127.30, 1276.51, 0.00, 0.00, 0.00
130, 38125.48, 31067.16, 24481.73, -10376.33, 14077.40, -10192.89, 12377.81, 1464.80, 0.00, 0.00, 0.00
131, 38191.84, 31130.01, 24400.13, -10288.57, 13000.89, -10101.13, 12463.44, 1559.46, 0.00, 0.00, 0.00
132, 38049.46, 31060.61, 24843.61, -10539.47, 14059.27, -10313.25, 12221.51, 1381.52, 0.00, 0.00, 0.00
133, 37980.24, 31003.48, 24982.37, -10644.93, 15269.71, -10421.81, 12117.39, 1269.31, 0.00, 0.00, 0.00
134, 38096.56, 31049.86, 24558.80, -10424.41, 14386.28, -10238.26, 12329.07, 1420.81, 0.00, 0.00, 0.00
135, 38182.05, 31112.15, 24361.68, -10291.64, 13065.26, -10111.91, 12459.96, 1541.35, 0.00, 0.00, 0.00
136, 38081.52, 31079.70, 24762.29, -10484.80, 13768.76, -10275.88, 12271.64, 1406.22, 0.10, 0.95, 0.27
137, 37966.83, 30999.99, 25003.93, -10659.55, 15186.51, -10439.52, 12097.01, 1244.37, 0.00, 0.00, 0.00
138, 38069.42, 31035.13, 24627.40, -10475.86, 14651.39, -10286.67, 12278.62, 1362.18, 0.00, 0.00, 0.00
139, 38196.11, 31119.17, 24320.55, -10282.27, 13152.50, -10106.36, 12471.02, 1530.47, 0.00, 0.00, 0.00
140, 38121.52, 31103.26, 24648.01, -10439.99, 13469.79, -10238.46, 12316.55, 1426.09, 0.00, 0.00, 0.00
141, 37993.70, 31020.73, 24983.39, -10655.95, 14984.97, -10436.39, 12103.22, 1240.86, 0.00, 0.00, 0.00
142, 38049.84, 31023.84, 24695.23, -10537.71, 14839.01, -10347.07, 12215.14, 1297.65, 0.00, 0.00, 0.00
143, 38189.47, 31104.89, 24326.65, -10307.42, 13288.87, -10142.75, 12438.41, 1480.45, 0.00, 0.00, 0.00
144, 38134.49, 31095.72, 24544.65, -10414.48, 13210.35, -10220.83, 12338.48, 1426.13, 0.00, 0.00, 0.00
145, 37986.27, 31018.03, 24935.14, -10662.05, 14744.86, -10442.58, 12097.08, 1220.49, 0.00, 0.00, 0.00
146, 38009.72, 31003.99, 24749.77, -10598.88, 15006.20, -10394.16, 12160.98, 1247.41, 0.10, 0.95, 0.28
147, 38165.38, 31088.73, 24332.13, -10340.56, 13500.72, -10165.15, 12410.85, 1448.19, 0.00, 0.00, 0.00
148, 38165.98, 31115.01, 24455.80, -10375.28, 13032.54, -10180.93, 12377.46, 1449.89, 0.00, 0.00, 0.00
149, 38009.25, 31024.22, 24878.07, -10645.69, 14492.07, -10421.66, 12111.58, 1232.92, 0.00, 0.00, 0.00
150, 38004.71, 31000.17, 24810.21, -10628.97, 15143.31, -10427.47, 12120.95, 1207.78, 0.00, 0.00, 0.00
151, 38161.29, 31086.43, 24383.47, -10353.71, 13793.89, -10187.34, 12383.98, 1416.21, 0.00, 0.00, 0.00
152, 38199.44, 31135.62, 24390.29, -10309.76, 12956.39, -10133.27, 12429.76, 1480.67, 0.00, 0.00, 0.00
153, 38055.68, 31063.43, 24823.85, -10559.61, 14207.64, -10346.47, 12186.53, 1290.41, 0.00, 0.00, 0.00
154, 38004.09, 31014.61, 24861.06, -10627.34, 15202.05, -10421.70, 12117.26, 1202.05, 0.00, 0.00, 0.00
155, 38136.95, 31074.47, 24424.78, -10393.92, 14093.13, -10217.21, 12348.02, 1383.66, 0.00, 0.00, 0.00
156, 38195.60, 31123.95, 24304.86, -10317.92, 12951.32, -10136.25, 12430.70, 1468.04, 0.10, 0.95, 0.28
157, 38064.59, 31065.95, 24710.50, -10558.20, 13909.94, -10338.11, 12201.68, 1295.35, 0.00, 0.00, 0.00
158, 37995.53, 31014.30, 24861.71, -10672.49, 15149.70, -10450.87, 12089.25, 1176.77, 0.00, 0.00, 0.00
159, 38118.13, 31064.97, 24468.23, -10456.59, 14333.08, -10265.64, 12302.91, 1331.34, 0.00, 0.00, 0.00
160, 38201.50, 31122.12, 24246.70, -10322.33, 12968.73, -10138.88, 12436.73, 1455.99, 0.00, 0.00, 0.00
161, 38102.95, 31087.25, 24609.13, -10514.33, 13577.86, -10300.33, 12249.74, 1320.72, 0.00, 0.00, 0.00
162, 37986.43, 31009.83, 24863.48, -10696.36, 15029.69, -10471.28, 12066.57, 1150.13, 0.00, 0.00, 0.00
163, 38070.05, 31036.25, 24525.09, -10527.65, 14600.25, -10336.72, 12225.73, 1251.21, 0.00, 0.00, 0.00
164, 38200.65, 31120.51, 24229.78, -10321.61, 13094.03, -10144.05, 12433.38, 1432.10, 0.00, 0.00, 0.00
165, 38136.57, 31110.14, 24523.64, -10464.01, 13322.18, -10254.51, 12302.38, 1351.14, 0.00, 0.00, 0.00
166, 37999.95, 31026.63, 24856.23, -10693.19, 14873.57, -10460.08, 12079.51, 1160.59, 0.10, 0.95, 0.28
167, 38051.03, 31028.40, 24604.26, -10583.98, 14841.29, -10375.43, 12184.23, 1219.53, 0.00, 0.00, 0.00
168, 38205.46, 31122.30, 24241.23, -10337.55, 13298.04, -10151.80, 12427.48, 1419.54, 0.00, 0.00, 0.00
169, 38172.42, 31127.80, 24447.51, -10420.61, 13125.82, -10208.24, 12347.46, 1382.88, 0.00, 0.00, 0.00
170, 38027.31, 31042.73, 24844.21, -10666.41, 14649.71, -10429.68, 12102.33, 1184.55, 0.00, 0.00, 0.00
171, 38034.02, 31018.70, 24688.64, -10624.03, 15021.22, -10413.99, 12133.55, 1178.67, 0.00, 0.00, 0.00
172, 38187.69, 31104.22, 24278.49, -10362.65, 13554.01, -10183.37, 12386.96, 1378.39, 0.00, 0.00, 0.00
173, 38198.21, 31136.61, 24382.87, -10368.53, 12976.60, -10175.65, 12378.08, 1401.25, 0.00, 0.00, 0.00
174, 38050.80, 31058.44, 24805.99, -10623.27, 14370.96, -10395.24, 12130.29, 1202.93, 0.00, 0.00, 0.00
175, 38023.31, 31018.48, 24748.32, -10648.30, 15110.76, -10425.95, 12102.53, 1147.90, 0.00, 0.00, 0.00
176, 38167.64, 31092.50, 24312.01, -10401.09, 13814.45, -10206.66, 12350.10, 1338.33, 0.10, 0.94, 0.28
177, 38192.29, 31126.21, 24276.77, -10375.32, 12901.38, -10166.27, 12384.72, 1388.47, 0.00, 0.00, 0.00
178, 38063.70, 31072.25, 24693.27, -10617.57, 14075.50, -10373.09, 12154.16, 1210.57, 0.00, 0.00, 0.00
179, 38008.00, 31025.23, 24752.52, -10700.16, 15127.95, -10459.70, 12071.57, 1113.92, 0.00, 0.00, 0.00
180, 38137.02, 31080.12, 24326.47, -10469.15, 14095.28, -10259.65, 12298.02, 1281.11, 0.00, 0.00, 0.00
181, 38218.00, 31145.79, 24198.87, -10353.19, 12893.20, -10143.47, 12418.67, 1397.92, 0.00, 0.00, 0.00
182, 38106.01, 31099.52, 24595.99, -10567.52, 13761.16, -10323.47, 12212.95, 1248.43, 0.00, 0.00, 0.00
183, 38006.46, 31024.29, 24763.59, -10718.35, 15074.84, -10470.76, 12060.40, 1100.91, 0.00, 0.00, 0.00
184, 38124.72, 31072.99, 24392.75, -10501.21, 14363.66, -10291.57, 12267.24, 1243.07, 0.00, 0.00, 0.00
185, 38224.34, 31142.42, 24174.04, -10345.48, 12965.22, -10142.51, 12422.00, 1387.80, 0.09, 0.95, 0.28
186, 38120.12, 31101.80, 24501.15, -10537.64, 13486.84, -10301.96, 12237.13, 1258.60, 0.00, 0.00, 0.00
187, 38001.00, 31023.17, 24751.87, -10731.03, 14959.53, -10483.01, 12047.10, 1089.13, 0.00, 0.00, 0.00
188, 38082.81, 31044.65, 24440.42, -10579.97, 14629.06, -10363.12, 12190.89, 1176.17, 0.00, 0.00, 0.00
189, 38220.63, 31130.88, 24137.11, -10367.68, 13102.19, -10167.16, 12399.07, 1350.02, 0.00, 0.00, 0.00
190, 38151.21, 31110.65, 24390.76, -10505.01, 13227.31, -10272.24, 12271.33, 1273.42, 0.00, 0.00, 0.00
191, 38008.78, 31026.70, 24719.38, -10736.66, 14770.43, -10480.78, 12044.53, 1079.79, 0.00, 0.00, 0.00
192, 38062.70, 31039.82, 24494.85, -10628.86, 14828.37, -10399.82, 12142.83, 1128.81, 0.00, 0.00, 0.00
193, 38197.52, 31115.62, 24125.94, -10393.94, 13311.60, -10186.47, 12372.27, 1319.92, 0.00, 0.00, 0.00
194, 38176.58, 31127.33, 24295.76, -10449.44, 13041.33, -10220.47, 12319.52, 1304.98, 0.00, 0.00, 0.00
195, 38036.19, 31053.54, 24685.69, -10691.76, 14532.72, -10437.46, 12080.16, 1108.04, 0.10, 0.96, 0.28
196, 38044.97, 31032.96, 24557.71, -10659.99, 14982.62, -10424.25, 12110.69, 1100.76, 0.00, 0.00, 0.00
197, 38182.99, 31103.44, 24150.14, -10417.05, 13578.75, -10208.53, 12348.44, 1292.31, 0.00, 0.00, 0.00
198, 38191.46, 31129.63, 24218.31, -10425.12, 12938.06, -10199.59, 12343.39, 1314.24, 0.00, 0.00, 0.00
199, 38048.95, 31055.42, 24628.85, -10680.87, 14289.00, -10420.32, 12097.08, 1120.18, 0.00, 0.00, 0.00
200, 38020.41, 31020.44, 24608.51, -10714.33, 15105.89, -10461.00, 12065.72, 1066.31, 0.00, 0.00, 0.00
201, 38153.29, 31082.74, 24190.87, -10477.63, 13882.51, -10257.46, 12299.45, 1243.29, 0.00, 0.00, 0.00
202, 38219.22, 31142.88, 24158.08, -10402.43, 12891.50, -10176.70, 12379.83, 1331.02, 0.00, 0.00, 0.00
203, 38085.32, 31079.14, 24567.56, -10646.67, 14000.01, -10385.94, 12145.85, 1154.13, 0.00, 0.00, 0.00
204, 38009.97, 31014.68, 24646.91, -10752.93, 15125.38, -10494.55, 12038.72, 1036.38, 0.00, 0.00, 0.00
205, 38135.16, 31067.40, 24248.91, -10526.73, 14165.40, -10301.54, 12256.71, 1195.21, 0.10, 0.95, 0.28
206, 38220.16, 31130.35, 24111.47, -10400.24, 12912.83, -10178.36, 12381.55, 1319.51, 0.00, 0.00, 0.00
207, 38103.15, 31079.83, 24488.64, -10610.17, 13709.08, -10353.64, 12177.74, 1173.78, 0.00, 0.00, 0.00
208, 38008.76, 31016.02, 24677.80, -10759.30, 15060.83, -10497.23, 12028.01, 1031.24, 0.00, 0.00, 0.00
209, 38114.51, 31057.68, 24331.24, -10568.71, 14440.59, -10335.47, 12213.19, 1155.92, 0.00, 0.00, 0.00
210, 38219.65, 31126.84, 24099.78, -10403.37, 13007.55, -10175.41, 12381.37, 1300.85, 0.00, 0.00, 0.00
211, 38136.21, 31101.24, 24413.40, -10576.17, 13432.75, -10315.08, 12218.25, 1186.48, 0.00, 0.00, 0.00
212, 38016.92, 31024.00, 24692.55, -10782.24, 14928.37, -10503.71, 12015.72, 1014.39, 0.00, 0.00, 0.00
213, 38088.60, 31042.21, 24412.71, -10642.49, 14690.88, -10392.04, 12147.86, 1096.49, 0.00, 0.00, 0.00
214, 38226.85, 31129.54, 24104.14, -10417.19, 13160.84, -10186.41, 12366.86, 1283.26, 0.00, 0.00, 0.00
215, 38180.45, 31125.34, 24351.35, -10524.79, 13183.30, -10266.29, 12266.57, 1229.88, 0.10, 0.95, 0.28
216, 38050.34, 31049.57, 24697.87, -10756.13, 14708.81, -10477.02, 12041.20, 1040.00, 0.00, 0.00, 0.00
217, 38070.47, 31034.86, 24488.62, -10689.36, 14880.65, -10436.45, 12098.57, 1053.97, 0.00, 0.00, 0.00
218, 38219.31, 31119.91, 24123.25, -10440.63, 13368.89, -10214.61, 12341.36, 1253.46, 0.00, 0.00, 0.00
219, 38214.20, 31144.29, 24274.98, -10482.41, 12986.90, -10235.29, 12304.48, 1248.59, 0.00, 0.00, 0.00
220, 38064.35, 31061.26, 24666.76, -10738.98, 14446.45, -10460.55, 12054.14, 1046.15, 0.00, 0.00, 0.00
221, 38048.99, 31023.30, 24553.99, -10737.53, 14994.29, -10475.64, 12050.90, 1011.64, 0.00, 0.00, 0.00
222, 38199.93, 31104.89, 24155.87, -10481.31, 13598.93, -10251.83, 12299.96, 1205.61, 0.00, 0.00, 0.00
223, 38227.20, 31143.60, 24211.32, -10461.38, 12844.97, -10218.10, 12325.31, 1252.10, 0.00, 0.00, 0.00
224, 38076.53, 31069.95, 24615.48, -10721.89, 14137.54, -10441.37, 12077.16, 1059.23, 0.00, 0.00, 0.00
225, 38027.31, 31017.80, 24606.25, -10785.32, 15040.02, -10511.44, 12016.92, 980.01, 0.10, 0.95, 0.28
226, 38164.84, 31081.93, 24202.98, -10543.56, 13873.03, -10303.37, 12253.47, 1159.07, 0.00, 0.00, 0.00
227, 38225.13, 31132.69, 24142.36, -10467.72, 12816.91, -10221.59, 12337.72, 1249.82, 0.00, 0.00, 0.00
228, 38095.48, 31072.32, 24542.46, -10700.99, 13853.45, -10417.77, 12116.92, 1086.12, 0.00, 0.00, 0.00
229, 38020.70, 31015.14, 24653.59, -10809.08, 15043.42, -10526.13, 12005.99, 971.76, 0.00, 0.00, 0.00
230, 38140.19, 31065.53, 24276.21, -10590.41, 14177.40, -10340.16, 12215.14, 1125.08, 0.00, 0.00, 0.00
231, 38220.25, 31124.67, 24112.03, -10458.92, 12886.14, -10213.45, 12345.34, 1246.42, 0.00, 0.00, 0.00
232, 38116.85, 31086.60, 24468.68, -10656.33, 13596.43, -10376.33, 12157.43, 1115.44, 0.00, 0.00, 0.00
233, 38017.25, 31018.32, 24660.32, -10820.23, 14994.87, -10531.67, 11995.82, 962.56, 0.00, 0.00, 0.00
234, 38113.16, 31055.89, 24317.02, -10640.73, 14471.35, -10384.89, 12168.31, 1076.33, 0.00, 0.00, 0.00
235, 38228.79, 31130.30, 24064.58, -10458.98, 13009.88, -10215.89, 12347.33, 1238.58, 0.10, 0.94, 0.27
236, 38150.94, 31109.92, 24357.50, -10617.86, 13343.83, -10343.74, 12196.81, 1138.13, 0.00, 0.00, 0.00
237, 38019.49, 31030.01, 24637.39, -10836.77, 14875.08, -10544.21, 11982.05, 950.98, 0.00, 0.00, 0.00
238, 38093.94, 31047.20, 24353.28, -10697.12, 14716.05, -10436.12, 12116.28, 1025.48, 0.00, 0.00, 0.00
239, 38229.77, 31122.08, 24020.88, -10469.85, 13156.26, -10224.63, 12339.75, 1212.90, 0.00, 0.00, 0.00
240, 38167.39, 31106.65, 24230.88, -10587.08, 13092.89, -10312.13, 12226.94, 1153.28, 0.00, 0.00, 0.00
241, 38028.90, 31033.54, 24570.94, -10832.71, 14645.42, -10529.64, 11988.42, 955.96, 0.00, 0.00, 0.00
242, 38061.58, 31025.14, 24378.64, -10762.63, 14900.52, -10478.36, 12061.76, 981.67, 0.00, 0.00, 0.00
243, 38207.38, 31098.38, 23996.18, -10515.38, 13379.28, -10254.22, 12308.55, 1179.32, 0.00, 0.00, 0.00
244, 38184.33, 31108.29, 24114.47, -10574.63, 12917.61, -10283.39, 12259.86, 1170.27, 0.00, 0.00, 0.00
245, 38050.07, 31046.55, 24500.28, -10825.24, 14377.18, -10498.03, 12015.72, 977.26, 0.10, 0.94, 0.27
246, 38043.25, 31022.83, 24412.44, -10820.72, 15019.54, -10507.69, 12017.39, 947.74, 0.00, 0.00, 0.00
247, 38186.59, 31086.67, 23996.36, -10564.93, 13643.66, -10284.46, 12269.30, 1138.96, 0.00, 0.00, 0.00
248, 38217.93, 31126.57, 24017.35, -10533.53, 12805.47, -10239.02, 12305.35, 1196.76, 0.00, 0.00, 0.00
249, 38065.36, 31055.36, 24412.78, -10800.52, 14083.01, -10466.14, 12043.54, 998.85, 0.00, 0.00, 0.00
250, 38028.27, 31019.59, 24428.31, -10854.99, 15075.85, -10533.28, 11978.57, 915.66, 0.00, 0.00, 0.00
251, 38150.38, 31065.73, 24012.63, -10615.78, 13945.43, -10334.13, 12207.70, 1083.55, 0.00, 0.00, 0.00
252, 38202.55, 31108.11, 23929.89, -10513.68, 12796.35, -10228.74, 12311.21, 1191.04, 0.00, 0.00, 0.00
253, 38078.95, 31059.63, 24328.35, -10746.65, 13789.93, -10419.47, 12084.65, 1030.82, 0.00, 0.00, 0.00
254, 38013.63, 31013.09, 24455.89, -10870.46, 15067.71, -10539.12, 11960.55, 906.43, 0.00, 0.00, 0.00
255, 38125.23, 31050.73, 24072.27, -10658.58, 14253.13, -10366.94, 12163.24, 1042.89, 0.11, 0.95, 0.27
0, 38233.82, 31128.02, 23886.37, -10496.74, 12857.13, -10214.88, 12322.65, 1186.03, 0.00, 0.00, 0.00
1, 38139.92, 31107.93, 24237.25, -10683.98, 13490.06, -10366.02, 12141.74, 1067.25, 0.00, 0.00, 0.00
2, 38037.66, 31045.46, 24465.19, -10858.43, 14959.55, -10529.19, 11965.80, 908.64, 0.00, 0.00, 0.00
3, 38116.41, 31057.39, 24138.21, -10699.58, 14515.20, -10405.43, 12115.72, 1000.04, 0.00, 0.00, 0.00
4, 38229.91, 31120.33, 23866.05, -10504.38, 12990.27, -10229.03, 12306.92, 1160.77, 0.00, 0.00, 0.00
5, 38159.99, 31109.02, 24154.26, -10646.27, 13236.37, -10333.23, 12170.32, 1079.63, 0.00, 0.00, 0.00
6, 38028.88, 31038.59, 24451.64, -10874.21, 14802.98, -10534.09, 11944.73, 890.23, 0.00, 0.00, 0.00
7, 38084.91, 31040.63, 24200.30, -10762.52, 14755.39, -10450.49, 12053.78, 948.45, 0.00, 0.00, 0.00
8, 38223.25, 31113.61, 23867.93, -10526.93, 13187.82, -10241.88, 12286.35, 1141.30, 0.00, 0.00, 0.00
9, 38202.26, 31135.33, 24079.49, -10599.38, 13005.21, -10285.07, 12217.69, 1121.77, 0.10, 0.95, 0.28
10, 38054.98, 31060.03, 24439.11, -10858.16, 14562.43, -10506.48, 11969.05, 919.98, 0.00, 0.00, 0.00
11, 38072.95, 31043.62, 24277.97, -10811.67, 14922.47, -10480.67, 12012.18, 921.27, 0.00, 0.00, 0.00
12, 38207.98, 31104.04, 23898.28, -10568.37, 13425.82, -10269.55, 12250.81, 1104.51, 0.00, 0.00, 0.00
13, 38227.63, 31149.86, 24019.90, -10569.80, 12851.36, -10248.59, 12255.33, 1139.56, 0.00, 0.00, 0.00
14, 38088.87, 31088.41, 24419.86, -10822.47, 14283.70, -10465.02, 12010.24, 953.88, 0.00, 0.00, 0.00
15, 38066.61, 31053.88, 24374.20, -10839.14, 15030.72, -10492.04, 11987.49, 907.06, 0.00, 0.00, 0.00
16, 38202.57, 31107.32, 23985.12, -10586.95, 13715.37, -10271.99, 12230.79, 1090.41, 0.00, 0.00, 0.00
17, 38237.78, 31145.90, 23988.83, -10543.34, 12799.35, -10213.25, 12278.15, 1160.46, 0.00, 0.00, 0.00
18, 38091.48, 31081.84, 24376.50, -10806.93, 14019.53, -10430.80, 12024.70, 972.61, 0.10, 0.95, 0.27
19, 38030.91, 31030.50, 24418.59, -10898.46, 15111.81, -10522.75, 11934.07, 869.44, 0.00, 0.00, 0.00
20, 38158.36, 31079.61, 24036.06, -10667.64, 14059.07, -10328.27, 12164.18, 1031.82, 0.00, 0.00, 0.00
21, 38244.46, 31151.94, 23948.64, -10546.45, 12830.04, -10203.95, 12288.94, 1156.79, 0.00, 0.00, 0.00
22, 38133.44, 31120.02, 24318.90, -10769.61, 13726.16, -10380.82, 12076.94, 1013.20, 0.00, 0.00, 0.00
23, 38040.97, 31055.36, 24456.34, -10921.91, 15070.73, -10519.83, 11929.64, 875.03, 0.00, 0.00, 0.00
24, 38150.25, 31090.56, 24108.26, -10716.34, 14346.15, -10350.44, 12126.02, 1006.88, 0.00, 0.00, 0.00
25, 38250.92, 31156.95, 23928.06, -10547.94, 12910.66, -10191.37, 12290.84, 1154.29, 0.00, 0.00, 0.00
26, 38161.42, 31135.98, 24249.94, -10726.80, 13446.38, -10334.46, 12117.35, 1042.55, 0.00, 0.00, 0.00
27, 38050.78, 31071.11, 24477.69, -10916.10, 14943.73, -10509.10, 11927.47, 875.38, 0.00, 0.00, 0.00
28, 38112.72, 31069.68, 24178.33, -10776.71, 14603.69, -10402.43, 12058.52, 949.41, 0.09, 0.94, 0.27
29, 38229.48, 31127.98, 23904.05, -10575.66, 13057.02, -10218.21, 12258.72, 1121.74, 0.00, 0.00, 0.00
30, 38174.92, 31125.88, 24157.12, -10699.76, 13182.52, -10306.21, 12142.45, 1053.06, 0.00, 0.00, 0.00
31, 38052.77, 31062.49, 24457.50, -10925.44, 14739.50, -10503.69, 11922.64, 870.42, 0.00, 0.00, 0.00
32, 38098.52, 31062.20, 24241.74, -10830.74, 14786.93, -10436.10, 12016.92, 914.28, 0.00, 0.00, 0.00
33, 38231.41, 31129.29, 23913.04, -10599.62, 13221.17, -10228.99, 12252.62, 1102.52, 0.00, 0.00, 0.00
34, 38200.16, 31136.76, 24069.54, -10677.72, 12949.46, -10276.57, 12184.90, 1076.53, 0.00, 0.00, 0.00
35, 38066.41, 31074.02, 24406.88, -10924.33, 14460.71, -10490.48, 11947.50, 886.22, 0.00, 0.00, 0.00
36, 38077.74, 31057.75, 24273.59, -10889.48, 14910.92, -10476.24, 11981.72, 882.31, 0.00, 0.00, 0.00
37, 38210.08, 31112.60, 23904.70, -10642.47, 13454.59, -10264.90, 12220.79, 1065.93, 0.00, 0.00, 0.00
38, 38219.76, 31137.63, 23977.86, -10640.23, 12793.65, -10249.66, 12223.65, 1096.42, 0.10, 0.94, 0.27
39, 38079.53, 31075.76, 24340.00, -10890.22, 14166.94, -10465.11, 11976.98, 907.01, 0.00, 0.00, 0.00
40, 38049.69, 31040.45, 24296.05, -10923.30, 14991.29, -10511.38, 11938.02, 844.16, 0.00, 0.00, 0.00
41, 38184.58, 31088.50, 23913.73, -10677.18, 13720.30, -10303.73, 12176.49, 1018.30, 0.00, 0.00, 0.00
42, 38239.34, 31138.73, 23902.80, -10611.71, 12703.08, -10232.76, 12244.17, 1099.15, 0.00, 0.00, 0.00
43, 38122.80, 31106.12, 24282.04, -10841.65, 13822.94, -10419.09, 12024.81, 939.64, 0.00, 0.00, 0.00
44, 38050.87, 31050.06, 24340.51, -10951.39, 14965.59, -10522.80, 11917.35, 826.48, 0.00, 0.00, 0.00
45, 38151.61, 31066.91, 23968.47, -10751.68, 13995.48, -10359.76, 12110.78, 958.85, 0.00, 0.00, 0.00
46, 38246.88, 31136.27, 23860.55, -10612.76, 12703.95, -10226.41, 12251.91, 1085.15, 0.00, 0.00, 0.00
47, 38143.32, 31107.39, 24207.30, -10817.64, 13512.21, -10394.03, 12051.75, 948.70, 0.00, 0.00, 0.00
48, 38055.61, 31053.97, 24352.34, -10966.68, 14883.11, -10533.64, 11902.46, 808.73, 0.10, 0.94, 0.26
49, 38163.61, 31085.51, 24028.59, -10764.64, 14229.52, -10372.68, 12095.67, 935.02, 0.00, 0.00, 0.00
50, 38249.67, 31129.18, 23823.90, -10601.66, 12767.74, -10225.81, 12251.75, 1080.66, 0.00, 0.00, 0.00
51, 38159.25, 31103.10, 24106.31, -10774.61, 13208.11, -10362.98, 12084.81, 972.21, 0.00, 0.00, 0.00
52, 38046.49, 31041.19, 24330.50, -10974.39, 14719.16, -10543.14, 11891.55, 801.33, 0.00, 0.00, 0.00
53, 38117.23, 31053.01, 24058.25, -10832.50, 14459.43, -10430.98, 12029.51, 881.98, 0.00, 0.00, 0.00
54, 38244.26, 31116.85, 23786.75, -10618.93, 12890.41, -10235.62, 12242.70, 1062.42, 0.00, 0.00, 0.00
55, 38196.63, 31118.07, 24010.36, -10731.83, 12914.50, -10318.28, 12136.46, 1003.57, 0.00, 0.00, 0.00
56, 38060.41, 31050.95, 24300.55, -10970.82, 14471.52, -10529.73, 11901.59, 810.00, 0.00, 0.00, 0.00
57, 38095.26, 31040.60, 24098.26, -10891.11, 14627.61, -10475.75, 11975.62, 838.01, 0.00, 0.00, 0.00
58, 38240.93, 31117.45, 23778.37, -10639.16, 13079.21, -10256.54, 12224.53, 1036.67, 0.10, 0.94, 0.26
59, 38218.09, 31132.02, 23920.34, -10697.50, 12708.55, -10294.56, 12168.94, 1018.43, 0.00, 0.00, 0.00
60, 38083.66, 31072.90, 24256.74, -10947.86, 14197.74, -10507.46, 11925.86, 826.08, 0.00, 0.00, 0.00
61, 38070.92, 31038.71, 24136.26, -10947.59, 14755.48, -10521.01, 11927.07, 794.49, 0.00, 0.00, 0.00
62, 38214.62, 31098.25, 23786.75, -10687.69, 13333.31, -10296.04, 12185.97, 992.10, 0.00, 0.00, 0.00
63, 38235.92, 31131.82, 23848.15, -10671.93, 12578.64, -10265.84, 12202.51, 1032.16, 0.00, 0.00, 0.00
64, 38110.21, 31086.74, 24218.70, -10914.22, 13877.84, -10469.20, 11963.23, 854.19, 0.00, 0.00, 0.00
65, 38065.13, 31041.95, 24206.58, -10972.92, 14784.05, -10534.00, 11900.22, 775.18, 0.00, 0.00, 0.00
66, 38199.09, 31093.87, 23843.70, -10729.15, 13589.19, -10325.32, 12142.32, 946.62, 0.00, 0.00, 0.00
67, 38258.30, 31146.13, 23807.60, -10648.97, 12509.49, -10235.33, 12225.24, 1036.54, 0.00, 0.00, 0.00
68, 38134.67, 31100.10, 24164.22, -10891.22, 13565.74, -10438.20, 11986.86, 866.09, 0.10, 0.96, 0.27
69, 38059.07, 31044.29, 24238.77, -11014.51, 14772.85, -10559.50, 11863.70, 740.40, 0.00, 0.00, 0.00
70, 38178.63, 31086.85, 23893.61, -10792.85, 13868.83, -10375.01, 12082.26, 888.55, 0.00, 0.00, 0.00
71, 38276.04, 31153.41, 23775.42, -10647.16, 12528.96, -10233.01, 12231.08, 1028.25, 0.00, 0.00, 0.00
72, 38162.61, 31113.87, 24100.32, -10862.34, 13252.53, -10405.25, 12024.59, 886.63, 0.00, 0.00, 0.00
73, 38068.11, 31059.67, 24260.67, -11025.91, 14665.29, -10559.66, 11864.10, 732.35, 0.00, 0.00, 0.00
74, 38143.09, 31070.55, 23952.75, -10863.15, 14134.77, -10432.52, 12020.52, 830.99, 0.00, 0.00, 0.00
75, 38258.83, 31139.60, 23750.65, -10669.29, 12645.19, -10254.11, 12211.79, 998.94, 0.00, 0.00, 0.00
76, 38183.98, 31125.72, 24024.30, -10821.87, 12980.98, -10367.50, 12068.53, 912.35, 0.00, 0.00, 0.00
77, 38055.83, 31051.58, 24261.83, -11036.33, 14521.08, -10561.22, 11859.77, 730.66, 0.00, 0.00, 0.00
78, 38110.80, 31050.89, 24017.78, -10920.93, 14383.46, -10474.18, 11973.36, 790.20, 0.10, 0.96, 0.26
79, 38244.26, 31119.13, 23749.80, -10697.39, 12832.54, -10269.20, 12201.62, 977.31, 0.00, 0.00, 0.00
80, 38218.84, 31138.17, 23972.83, -10787.76, 12761.86, -10326.01, 12126.25, 944.00, 0.00, 0.00, 0.00
81, 38076.22, 31068.03, 24274.13, -11045.16, 14324.74, -10549.78, 11880.58, 743.69, 0.00, 0.00, 0.00
82, 38099.66, 31056.21, 24106.38, -10987.71, 14596.05, -10510.71, 11939.61, 762.33, 0.00, 0.00, 0.00
83, 38234.47, 31118.63, 23791.22, -10748.24, 13101.70, -10297.76, 12174.86, 950.24, 0.00, 0.00, 0.00
84, 38236.12, 31151.11, 23924.59, -10777.16, 12637.56, -10303.91, 12149.85, 956.32, 0.00, 0.00, 0.00
85, 38100.96, 31088.12, 24271.29, -11031.23, 14090.63, -10519.20, 11905.01, 766.51, 0.00, 0.00, 0.00
86, 38080.35, 31050.73, 24180.25, -11041.58, 14750.03, -10543.23, 11894.64, 726.39, 0.00, 0.00, 0.00
87, 38216.88, 31111.30, 23840.84, -10789.90, 13410.13, -10326.19, 12143.23, 914.81, 0.00, 0.00, 0.00
88, 38247.77, 31148.92, 23885.34, -10760.89, 12595.50, -10281.69, 12176.60, 970.45, 0.10, 0.95, 0.25
89, 38113.70, 31091.90, 24234.56, -11016.41, 13865.88, -10492.94, 11928.19, 784.10, 0.00, 0.00, 0.00
90, 38067.21, 31055.20, 24244.31, -11086.24, 14865.68, -10564.86, 11856.10, 699.74, 0.00, 0.00, 0.00
91, 38175.93, 31086.96, 23889.46, -10874.15, 13775.92, -10389.02, 12068.20, 851.53, 0.00, 0.00, 0.00
92, 38235.45, 31132.16, 23835.43, -10784.58, 12652.85, -10298.63, 12160.60, 945.88, 0.00, 0.00, 0.00
93, 38126.20, 31098.56, 24184.23, -11004.55, 13621.78, -10478.05, 11949.62, 796.12, 0.00, 0.00, 0.00
94, 38051.90, 31047.20, 24278.38, -11130.54, 14878.42, -10598.21, 11826.00, 674.60, 0.00, 0.00, 0.00
95, 38151.92, 31072.46, 23944.28, -10931.03, 14072.57, -10431.31, 12018.44, 806.52, 0.00, 0.00, 0.00
96, 38253.36, 31140.65, 23810.06, -10770.63, 12692.62, -10278.25, 12179.55, 952.27, 0.00, 0.00, 0.00
97, 38158.74, 31113.69, 24122.14, -10963.46, 13308.07, -10434.33, 11996.99, 830.61, 0.10, 0.95, 0.25
98, 38041.91, 31035.64, 24289.95, -11158.30, 14752.11, -10612.65, 11804.81, 665.66, 0.00, 0.00, 0.00
99, 38124.00, 31052.88, 24000.54, -10996.92, 14304.24, -10483.73, 11962.88, 765.84, 0.00, 0.00, 0.00
100, 38242.71, 31116.55, 23789.36, -10798.66, 12787.46, -10300.22, 12163.22, 935.60, 0.00, 0.00, 0.00
101, 38191.06, 31119.19, 24054.23, -10926.76, 13006.43, -10394.90, 12042.58, 866.80, 0.00, 0.00, 0.00
102, 38067.39, 31055.91, 24304.71, -11149.12, 14540.77, -10592.63, 11823.27, 686.71, 0.00, 0.00, 0.00
103, 38116.72, 31058.91, 24077.70, -11042.48, 14493.29, -10516.34, 11922.67, 736.24, 0.00, 0.00, 0.00
104, 38248.95, 31130.64, 23809.30, -10807.54, 12941.44, -10309.85, 12154.05, 920.20, 0.00, 0.00, 0.00
105, 38208.32, 31137.66, 23994.71, -10899.20, 12775.45, -10371.86, 12064.96, 879.90, 0.00, 0.00, 0.00
106, 38069.56, 31063.54, 24293.35, -11148.76, 14314.75, -10590.05, 11816.61, 684.08, 0.00, 0.00, 0.00
107, 38090.25, 31048.70, 24147.86, -11099.14, 14679.19, -10562.16, 11861.20, 689.17, 0.11, 0.95, 0.26
108, 38225.93, 31108.73, 23830.94, -10854.30, 13215.54, -10347.27, 12101.10, 877.33, 0.00, 0.00, 0.00
109, 38235.34, 31142.10, 23939.12, -10862.57, 12654.42, -10332.47, 12102.44, 904.73, 0.00, 0.00, 0.00
110, 38107.40, 31091.41, 24279.36, -11111.30, 14047.04, -10544.03, 11866.56, 721.40, 0.00, 0.00, 0.00
111, 38076.13, 31046.55, 24205.78, -11148.33, 14780.56, -10593.30, 11830.91, 662.35, 0.00, 0.00, 0.00
112, 38218.38, 31109.18, 23872.62, -10892.83, 13475.82, -10372.33, 12081.32, 851.24, 0.00, 0.00, 0.00
113, 38257.67, 31147.91, 23888.07, -10842.43, 12563.11, -10306.25, 12136.33, 923.75, 0.00, 0.00, 0.00
114, 38133.75, 31103.93, 24225.22, -11078.82, 13741.67, -10503.69, 11908.61, 756.70, 0.00, 0.00, 0.00
115, 38072.95, 31049.12, 24246.39, -11174.67, 14795.18, -10601.52, 11809.52, 649.81, 0.00, 0.00, 0.00
116, 38187.15, 31085.40, 23900.23, -10958.90, 13747.84, -10423.33, 12018.51, 795.52, 0.00, 0.00, 0.00
117, 38259.55, 31141.57, 23828.43, -10845.71, 12540.54, -10313.41, 12132.04, 902.36, 0.11, 0.95, 0.26
118, 38157.89, 31111.71, 24169.12, -11050.63, 13410.71, -10480.42, 11929.77, 766.08, 0.00, 0.00, 0.00
119, 38069.36, 31052.12, 24278.64, -11197.64, 14714.58, -10620.61, 11784.87, 625.80, 0.00, 0.00, 0.00
120, 38168.11, 31082.96, 23964.69, -11002.96, 13996.39, -10464.59, 11970.83, 746.66, 0.00, 0.00, 0.00
121, 38276.64, 31152.70, 23814.78, -10828.28, 12573.86, -10303.80, 12145.74, 905.83, 0.00, 0.00, 0.00
122, 38174.41, 31119.44, 24101.55, -11019.19, 13104.40, -10454.04, 11965.69, 786.51, 0.00, 0.00, 0.00
123, 38051.65, 31043.76, 24277.44, -11221.49, 14578.86, -10635.79, 11770.16, 614.90, 0.00, 0.00, 0.00
124, 38119.54, 31049.16, 24002.60, -11082.69, 14238.35, -10526.91, 11907.74, 701.73, 0.00, 0.00, 0.00
125, 38243.39, 31119.55, 23782.57, -10872.16, 12723.06, -10335.49, 12118.62, 878.09, 0.00, 0.00, 0.00
126, 38193.90, 31123.55, 24026.34, -10988.43, 12860.41, -10413.72, 12008.50, 820.40, 0.00, 0.00, 0.00
127, 38084.33, 31069.21, 24285.91, -11200.71, 14390.03, -10601.86, 11799.08, 644.67, 0.11, 0.95, 0.26
128, 38134.55, 31071.81, 24082.57, -11101.11, 14432.03, -10532.90, 11892.27, 690.36, 0.00, 0.00, 0.00
129, 38267.10, 31134.77, 23800.72, -10863.04, 12888.48, -10324.85, 12126.80, 881.53, 0.00, 0.00, 0.00
130, 38240.73, 31144.83, 23964.29, -10930.74, 12598.74, -10370.52, 12063.53, 858.64, 0.00, 0.00, 0.00
131, 38109.03, 31087.10, 24267.36, -11177.50, 14066.91, -10581.02, 11825.37, 669.19, 0.00, 0.00, 0.00
132, 38109.95, 31061.41, 24135.66, -11156.22, 14509.72, -10576.64, 11845.40, 655.38, 0.00, 0.00, 0.00
133, 38239.09, 31111.82, 23812.07, -10917.55, 13082.05, -10369.13, 12078.35, 837.43, 0.00, 0.00, 0.00
134, 38261.67, 31147.58, 23901.46, -10910.67, 12426.30, -10341.46, 12088.09, 874.53, 0.00, 0.00, 0.00
135, 38126.66, 31091.19, 24231.12, -11163.29, 13776.30, -10554.45, 11842.47, 687.67, 0.00, 0.00, 0.00
136, 38095.35, 31058.89, 24188.10, -11205.96, 14603.36, -10606.19, 11798.35, 623.68, 0.00, 0.00, 0.00
137, 38219.67, 31104.69, 23850.79, -10974.44, 13396.94, -10408.33, 12024.19, 793.69, 0.10, 0.95, 0.26
138, 38273.70, 31160.21, 23858.79, -10904.25, 12444.67, -10331.65, 12093.75, 878.67, 0.00, 0.00, 0.00
139, 38151.03, 31121.45, 24201.69, -11145.03, 13584.54, -10528.99, 11860.80, 712.26, 0.00, 0.00, 0.00
140, 38069.89, 31058.93, 24237.74, -11264.97, 14738.85, -10642.83, 11743.81, 593.84, 0.00, 0.00, 0.00
141, 38187.75, 31097.96, 23903.25, -11044.11, 13795.90, -10462.38, 11958.70, 741.92, 0.00, 0.00, 0.00
142, 38278.48, 31162.85, 23824.48, -10909.26, 12545.16, -10330.08, 12095.06, 873.42, 0.00, 0.00, 0.00
143, 38160.53, 31117.27, 24141.60, -11128.67, 13351.41, -10510.33, 11882.66, 722.77, 0.00, 0.00, 0.00
144, 38063.90, 31057.21, 24266.75, -11292.75, 14715.74, -10663.37, 11719.76, 571.27, 0.00, 0.00, 0.00
145, 38161.18, 31082.09, 23973.03, -11109.42, 14114.50, -10515.96, 11898.15, 687.47, 0.00, 0.00, 0.00
146, 38269.43, 31147.74, 23810.62, -10926.36, 12690.63, -10350.33, 12076.07, 843.69, 0.00, 0.00, 0.00
147, 38202.35, 31143.78, 24095.72, -11076.32, 13109.10, -10465.44, 11927.14, 754.59, 0.10, 0.95, 0.26
148, 38092.87, 31088.53, 24310.81, -11270.42, 14596.74, -10638.29, 11735.29, 598.00, 0.00, 0.00, 0.00
149, 38150.09, 31092.82, 24063.04, -11141.25, 14370.41, -10539.18, 11854.67, 670.91, 0.00, 0.00, 0.00
150, 38279.21, 31156.61, 23827.47, -10915.61, 12844.97, -10336.59, 12070.79, 849.97, 0.00, 0.00, 0.00
151, 38234.98, 31158.85, 24042.45, -11018.76, 12860.92, -10407.29, 11974.46, 802.18, 0.00, 0.00, 0.00
152, 38098.55, 31089.15, 24308.46, -11263.80, 14397.27, -10620.52, 11735.92, 606.56, 0.00, 0.00, 0.00
153, 38113.34, 31067.31, 24123.92, -11212.82, 14594.64, -10591.06, 11786.28, 617.22, 0.00, 0.00, 0.00
154, 38236.30, 31121.03, 23834.85, -10986.35, 13126.46, -10395.26, 12009.28, 793.62, 0.00, 0.00, 0.00
155, 38226.87, 31140.40, 23988.99, -11029.27, 12781.93, -10414.39, 11971.35, 787.76, 0.00, 0.00, 0.00
156, 38102.05, 31087.03, 24315.14, -11268.54, 14252.99, -10616.09, 11739.63, 605.98, 0.00, 0.00, 0.00
157, 38096.11, 31065.37, 24217.78, -11259.38, 14822.45, -10623.25, 11745.53, 586.24, 0.10, 0.95, 0.26
158, 38221.08, 31117.72, 23902.89, -11021.26, 13476.29, -10417.79, 11975.57, 765.84, 0.00, 0.00, 0.00
159, 38237.78, 31150.22, 23964.56, -11005.64, 12764.21, -10390.48, 11991.80, 800.84, 0.00, 0.00, 0.00
160, 38118.53, 31106.41, 24306.94, -11240.27, 14059.56, -10583.57, 11765.80, 630.34, 0.00, 0.00, 0.00
161, 38081.40, 31069.35, 24289.39, -11298.29, 14968.16, -10644.73, 11706.68, 556.13, 0.00, 0.00, 0.00
162, 38197.03, 31108.38, 23955.91, -11072.76, 13814.03, -10453.58, 11926.51, 721.38, 0.00, 0.00, 0.00
163, 38258.94, 31160.74, 23946.81, -10983.13, 12761.57, -10361.22, 12020.83, 822.39, 0.00, 0.00, 0.00
164, 38137.89, 31114.90, 24283.49, -11212.77, 13791.34, -10551.12, 11797.52, 659.78, 0.00, 0.00, 0.00
165, 38065.82, 31063.25, 24350.19, -11330.21, 14976.61, -10667.57, 11676.91, 539.55, 0.00, 0.00, 0.00
166, 38172.96, 31101.04, 24033.06, -11120.80, 14117.25, -10493.56, 11877.52, 677.75, 0.00, 0.00, 0.00
167, 38267.32, 31166.27, 23933.40, -10971.13, 12815.91, -10347.20, 12026.38, 818.79, 0.10, 0.95, 0.26
168, 38163.43, 31131.89, 24240.58, -11172.65, 13510.09, -10511.73, 11832.68, 686.42, 0.00, 0.00, 0.00
169, 38065.38, 31071.25, 24390.36, -11344.38, 14894.69, -10672.44, 11662.96, 534.01, 0.00, 0.00, 0.00
170, 38145.75, 31087.83, 24112.03, -11183.11, 14385.96, -10544.64, 11820.07, 636.38, 0.00, 0.00, 0.00
171, 38252.68, 31148.92, 23936.46, -10997.55, 12953.26, -10376.60, 12006.28, 796.39, 0.00, 0.00, 0.00
172, 38183.73, 31135.49, 24207.25, -11139.80, 13304.79, -10483.93, 11872.04, 719.17, 0.00, 0.00, 0.00
173, 38050.78, 31056.27, 24428.18, -11366.76, 14828.39, -10683.55, 11649.48, 534.45, 0.00, 0.00, 0.00
174, 38093.92, 31046.04, 24185.99, -11264.21, 14718.85, -10609.68, 11747.70, 580.79, 0.00, 0.00, 0.00
175, 38232.61, 31117.14, 23944.75, -11027.61, 13228.63, -10396.85, 11982.39, 777.24, 0.00, 0.00, 0.00
176, 38195.64, 31123.64, 24142.19, -11108.28, 13179.12, -10447.12, 11906.84, 755.96, 0.00, 0.00, 0.00
177, 38068.57, 31068.28, 24414.05, -11337.59, 14696.92, -10646.31, 11682.09, 578.02, 0.10, 0.96, 0.26
178, 38081.56, 31047.44, 24243.13, -11295.90, 14981.21, -10621.35, 11720.09, 577.32, 0.00, 0.00, 0.00
179, 38217.82, 31110.50, 23956.40, -11052.16, 13528.75, -10407.84, 11960.37, 766.60, 0.00, 0.00, 0.00
180, 38203.09, 31124.94, 24082.33, -11091.92, 13079.86, -10423.67, 11925.33, 764.74, 0.00, 0.00, 0.00
181, 38076.60, 31069.28, 24396.26, -11333.76, 14488.65, -10630.96, 11687.59, 576.56, 0.00, 0.00, 0.00
182, 38071.48, 31049.88, 24315.88, -11335.84, 15102.34, -10646.78, 11684.24, 544.15, 0.00, 0.00, 0.00
183, 38197.66, 31093.73, 23983.89, -11099.88, 13758.44, -10447.07, 11916.61, 714.03, 0.00, 0.00, 0.00
184, 38243.74, 31136.02, 24016.41, -11044.18, 12887.19, -10385.20, 11976.85, 781.62, 0.00, 0.00, 0.00
185, 38117.46, 31090.05, 24325.27, -11275.02, 14031.89, -10583.37, 11754.16, 612.42, 0.00, 0.00, 0.00
186, 38065.45, 31036.80, 24304.53, -11344.02, 14922.43, -10660.35, 11681.65, 527.72, 0.10, 0.95, 0.26
187, 38189.14, 31079.29, 23961.40, -11109.51, 13759.93, -10468.37, 11905.10, 682.04, 0.00, 0.00, 0.00
188, 38263.68, 31135.82, 23909.46, -10992.27, 12558.57, -10357.62, 12025.22, 794.74, 0.00, 0.00, 0.00
189, 38160.08, 31098.32, 24222.83, -11196.55, 13420.63, -10530.64, 11828.95, 655.06, 0.00, 0.00, 0.00
190, 38090.59, 31053.57, 24295.99, -11314.05, 14589.72, -10651.46, 11710.59, 527.75, 0.00, 0.00, 0.00
191, 38189.47, 31085.40, 23986.77, -11115.95, 13770.66, -10494.46, 11899.08, 649.39, 0.00, 0.00, 0.00
192, 38286.61, 31147.78, 23861.78, -10949.14, 12405.46, -10339.51, 12062.86, 793.44, 0.00, 0.00, 0.00
193, 38207.24, 31131.42, 24152.49, -11115.79, 12981.42, -10471.21, 11900.72, 695.03, 0.00, 0.00, 0.00
194, 38101.65, 31068.50, 24309.62, -11298.14, 14385.54, -10640.08, 11721.37, 535.35, 0.00, 0.00, 0.00
195, 38157.67, 31064.74, 24030.76, -11163.78, 13971.99, -10536.72, 11852.82, 611.43, 0.00, 0.00, 0.00
196, 38265.16, 31118.34, 23820.66, -10973.05, 12510.81, -10364.44, 12044.10, 768.63, 0.10, 0.95, 0.27
197, 38219.31, 31125.50, 24067.33, -11090.06, 12734.71, -10446.74, 11939.05, 714.09, 0.00, 0.00, 0.00
198, 38104.43, 31069.44, 24300.30, -11306.00, 14247.58, -10636.12, 11728.21, 535.61, 0.00, 0.00, 0.00
199, 38143.83, 31064.10, 24083.69, -11218.27, 14233.28, -10574.03, 11807.87, 568.20, 0.00, 0.00, 0.00
200, 38256.71, 31116.44, 23824.59, -11008.75, 12753.86, -10391.17, 12013.53, 733.67, 0.00, 0.00, 0.00
201, 38229.82, 31129.45, 23999.54, -11083.63, 12595.83, -10442.71, 11946.25, 706.00, 0.00, 0.00, 0.00
202, 38107.82, 31077.73, 24286.40, -11316.31, 14089.06, -10646.67, 11720.49, 523.63, 0.00, 0.00, 0.00
203, 38118.53, 31060.07, 24140.33, -11278.15, 14457.11, -10630.96, 11755.77, 517.53, 0.00, 0.00, 0.00
204, 38256.57, 31121.76, 23843.72, -11025.87, 13010.53, -10410.93, 12001.81, 709.67, 0.00, 0.00, 0.00
205, 38256.98, 31145.48, 23956.78, -11037.49, 12476.54, -10403.11, 11995.58, 733.76, 0.00, 0.00, 0.00
206, 38123.65, 31087.79, 24272.94, -11285.06, 13864.21, -10608.85, 11757.71, 550.88, 0.10, 0.96, 0.27
207, 38091.30, 31046.82, 24198.29, -11327.80, 14618.35, -10660.02, 11715.06, 486.73, 0.00, 0.00, 0.00
208, 38223.98, 31102.43, 23874.37, -11093.04, 13375.04, -10459.83, 11944.24, 656.90, 0.00, 0.00, 0.00
209, 38272.82, 31148.36, 23895.27, -11039.46, 12491.36, -10395.01, 12000.34, 729.49, 0.00, 0.00, 0.00
210, 38163.68, 31121.25, 24222.21, -11247.15, 13636.71, -10570.83, 11800.69, 580.27, 0.00, 0.00, 0.00
211, 38097.25, 31071.70, 24242.79, -11332.47, 14681.88, -10657.27, 11718.86, 490.53, 0.00, 0.00, 0.00
212, 38199.20, 31094.96, 23917.46, -11130.21, 13692.03, -10492.18, 11916.18, 629.63, 0.00, 0.00, 0.00
213, 38272.02, 31146.55, 23860.06, -11019.72, 12513.96, -10386.10, 12025.44, 733.32, 0.00, 0.00, 0.00
214, 38169.67, 31114.81, 24168.52, -11224.44, 13349.67, -10556.10, 11825.61, 590.00, 0.00, 0.00, 0.00
215, 38086.59, 31063.09, 24271.00, -11369.24, 14618.04, -10695.29, 11680.64, 451.66, 0.00, 0.00, 0.00
216, 38176.51, 31082.76, 23974.66, -11186.18, 13926.66, -10547.97, 11858.18, 568.45, 0.11, 0.95, 0.27
217, 38272.58, 31136.38, 23825.64, -11015.83, 12540.22, -10390.01, 12028.46, 717.25, 0.00, 0.00, 0.00
218, 38194.84, 31120.36, 24095.43, -11172.79, 13023.11, -10514.42, 11880.11, 618.88, 0.00, 0.00, 0.00
219, 38092.94, 31067.67, 24271.15, -11355.40, 14448.82, -10678.48, 11702.37, 462.08, 0.00, 0.00, 0.00
220, 38151.48, 31073.04, 24008.88, -11229.07, 14127.69, -10582.12, 11823.02, 530.85, 0.00, 0.00, 0.00
221, 38264.40, 31132.04, 23789.59, -11029.85, 12644.76, -10408.25, 12019.96, 687.96, 0.00, 0.00, 0.00
222, 38221.32, 31135.64, 24011.88, -11130.59, 12745.03, -10480.96, 11922.06, 632.58, 0.00, 0.00, 0.00
223, 38107.09, 31080.17, 24258.08, -11343.06, 14222.48, -10670.32, 11708.31, 456.60, 0.00, 0.00, 0.00
224, 38147.59, 31078.00, 24071.17, -11257.63, 14277.27, -10613.68, 11785.87, 489.35, 0.00, 0.00, 0.00
225, 38277.18, 31144.05, 23815.13, -11024.86, 12786.45, -10410.24, 12011.38, 671.02, 0.00, 0.00, 0.00
226, 38267.70, 31168.57, 23978.32, -11067.18, 12499.54, -10431.16, 11975.48, 671.98, 0.11, 0.95, 0.27
227, 38126.26, 31097.94, 24251.15, -11319.64, 13951.91, -10647.90, 11733.57, 480.47, 0.00, 0.00, 0.00
228, 38113.50, 31064.03, 24111.41, -11317.22, 14416.90, -10655.99, 11734.11, 453.61, 0.00, 0.00, 0.00
229, 38251.16, 31130.10, 23824.52, -11066.88, 13037.39, -10436.57, 11984.58, 646.37, 0.00, 0.00, 0.00
230, 38272.36, 31160.63, 23914.13, -11054.77, 12403.45, -10404.11, 12005.64, 691.76, 0.00, 0.00, 0.00
231, 38125.68, 31089.85, 24211.03, -11314.25, 13727.35, -10617.61, 11755.21, 500.21, 0.00, 0.00, 0.00
232, 38091.73, 31050.24, 24164.04, -11364.59, 14542.69, -10673.27, 11704.85, 425.15, 0.00, 0.00, 0.00
233, 38208.65, 31093.24, 23867.17, -11143.28, 13362.05, -10488.98, 11920.97, 586.04, 0.00, 0.00, 0.00
234, 38260.42, 31139.46, 23881.09, -11070.55, 12403.65, -10414.15, 11995.31, 668.43, 0.00, 0.00, 0.00
235, 38163.39, 31117.40, 24208.12, -11278.96, 13469.99, -10584.62, 11793.09, 526.52, 0.00, 0.00, 0.00
236, 38089.67, 31064.61, 24247.22, -11400.89, 14590.95, -10702.62, 11671.43, 402.91, 0.10, 0.95, 0.28
237, 38199.00, 31100.91, 23958.86, -11195.52, 13687.40, -10533.01, 11872.84, 541.58, 0.00, 0.00, 0.00
238, 38286.70, 31161.04, 23900.90, -11063.20, 12478.69, -10402.68, 12009.55, 669.52, 0.00, 0.00, 0.00
239, 38198.91, 31141.50, 24203.99, -11251.15, 13252.82, -10549.31, 11835.27, 549.00, 0.00, 0.00, 0.00
240, 38097.03, 31077.37, 24315.26, -11425.18, 14598.57, -10706.66, 11671.39, 394.02, 0.00, 0.00, 0.00
241, 38168.75, 31084.44, 24041.00, -11269.79, 14026.59, -10584.78, 11826.69, 485.66, 0.00, 0.00, 0.00
242, 38282.82, 31155.16, 23904.18, -11077.99, 12629.25, -10407.46, 12021.73, 651.89, 0.00, 0.00, 0.00
243, 38204.72, 31136.92, 24149.25, -11236.53, 13048.01, -10525.75, 11875.66, 562.12, 0.00, 0.00, 0.00
244, 38093.45, 31076.23, 24312.17, -11438.82, 14519.71, -10708.41, 11676.17, 384.92, 0.00, 0.00, 0.00
245, 38158.14, 31091.68, 24088.88, -11309.63, 14303.19, -10612.76, 11795.71, 449.90, 0.00, 0.00, 0.00
246, 38275.84, 31153.55, 23887.35, -11098.29, 12824.60, -10424.72, 12003.07, 620.40, 0.10, 0.94, 0.28
247, 38237.84, 31159.18, 24093.75, -11194.42, 12841.93, -10488.09, 11913.73, 577.43, 0.00, 0.00, 0.00
248, 38104.05, 31090.43, 24322.70, -11429.61, 14327.24, -10691.33, 11682.67, 391.36, 0.00, 0.00, 0.00
249, 38133.62, 31085.22, 24158.35, -11363.76, 14488.38, -10651.54, 11746.76, 408.23, 0.00, 0.00, 0.00
250, 38267.21, 31150.46, 23916.23, -11125.67, 13029.35, -10439.74, 11985.18, 594.89, 0.00, 0.00, 0.00
251, 38244.13, 31155.51, 24043.73, -11176.03, 12665.86, -10460.08, 11945.84, 588.25, 0.00, 0.00, 0.00
252, 38112.09, 31095.72, 24304.79, -11421.03, 14070.53, -10670.41, 11710.97, 399.02, 0.00, 0.00, 0.00
253, 38100.96, 31067.25, 24200.52, -11424.02, 14614.24, -10690.26, 11704.60, 365.63, 0.00, 0.00, 0.00
254, 38232.64, 31126.05, 23923.14, -11182.38, 13278.46, -10486.07, 11939.90, 545.47, 0.00, 0.00, 0.00
255, 38259.28, 31161.30, 23991.71, -11155.08, 12554.59, -10448.28, 11970.99, 594.24, 0.00, 0.00, 0.00
0, 38135.70, 31112.20, 24280.48, -11390.14, 13804.68, -10645.62, 11741.68, 422.14, 0.10, 0.94, 0.27
1, 38094.81, 31076.01, 24254.01, -11452.85, 14694.39, -10711.94, 11675.84, 345.09, 0.00, 0.00, 0.00
2, 38201.12, 31108.11, 23959.95, -11240.09, 13593.28, -10534.13, 11878.97, 492.63, 0.00, 0.00, 0.00
3, 38251.41, 31143.87, 23939.66, -11156.90, 12569.37, -10449.93, 11964.13, 580.54, 0.00, 0.00, 0.00
4, 38155.05, 31122.10, 24230.92, -11351.27, 13551.59, -10610.40, 11775.30, 446.70, 0.00, 0.00, 0.00
5, 38090.25, 31078.00, 24290.38, -11462.67, 14713.66, -10720.43, 11658.74, 332.68, 0.00, 0.00, 0.00
6, 38183.24, 31098.63, 24010.00, -11270.29, 13892.70, -10567.35, 11847.07, 460.27, 0.00, 0.00, 0.00
7, 38266.81, 31152.43, 23927.90, -11125.38, 12627.04, -10433.82, 11994.15, 592.52, 0.00, 0.00, 0.00
8, 38180.22, 31135.29, 24195.32, -11298.61, 13289.54, -10572.60, 11827.16, 481.14, 0.00, 0.00, 0.00
9, 38081.74, 31074.20, 24300.66, -11474.00, 14652.60, -10734.02, 11652.25, 324.01, 0.00, 0.00, 0.00
10, 38155.34, 31083.83, 24040.84, -11327.01, 14162.69, -10618.20, 11796.76, 413.19, 0.11, 0.94, 0.27
11, 38272.42, 31153.55, 23892.25, -11127.91, 12725.99, -10440.30, 11995.96, 579.09, 0.00, 0.00, 0.00
12, 38214.75, 31150.71, 24124.15, -11258.51, 13012.36, -10536.88, 11873.78, 510.22, 0.00, 0.00, 0.00
13, 38084.49, 31075.32, 24289.39, -11485.38, 14484.29, -10739.79, 11657.26, 323.09, 0.00, 0.00, 0.00
14, 38148.21, 31089.20, 24085.79, -11366.51, 14356.01, -10648.57, 11776.75, 396.34, 0.00, 0.00, 0.00
15, 38277.38, 31154.26, 23880.94, -11144.74, 12877.60, -10447.81, 11997.03, 582.44, 0.00, 0.00, 0.00
16, 38240.32, 31156.32, 24052.64, -11230.88, 12796.17, -10503.58, 11920.34, 545.92, 0.00, 0.00, 0.00
17, 38116.07, 31098.45, 24277.93, -11459.20, 14267.59, -10699.60, 11697.79, 363.60, 0.00, 0.00, 0.00
18, 38126.06, 31082.11, 24123.12, -11418.30, 14547.12, -10684.45, 11731.38, 359.82, 0.00, 0.00, 0.00
19, 38257.49, 31144.05, 23871.42, -11173.93, 13114.37, -10479.53, 11966.25, 543.39, 0.11, 0.95, 0.27
20, 38257.18, 31163.31, 23981.05, -11189.10, 12649.57, -10476.33, 11954.32, 558.77, 0.00, 0.00, 0.00
21, 38124.50, 31101.31, 24229.80, -11433.79, 14033.05, -10689.68, 11716.18, 370.17, 0.00, 0.00, 0.00
22, 38112.27, 31081.53, 24143.88, -11441.57, 14663.88, -10713.57, 11704.74, 336.42, 0.00, 0.00, 0.00
23, 38233.42, 31130.88, 23877.68, -11206.07, 13397.37, -10517.43, 11932.61, 503.79, 0.00, 0.00, 0.00
24, 38275.37, 31173.84, 23935.37, -11152.27, 12602.16, -10449.24, 11991.26, 576.47, 0.00, 0.00, 0.00
25, 38148.97, 31122.70, 24204.68, -11388.57, 13798.80, -10637.73, 11764.75, 408.93, 0.00, 0.00, 0.00
26, 38099.35, 31075.58, 24185.50, -11470.13, 14768.47, -10718.94, 11685.83, 321.04, 0.00, 0.00, 0.00
27, 38194.86, 31096.88, 23892.52, -11267.89, 13738.54, -10556.37, 11884.71, 462.17, 0.00, 0.00, 0.00
28, 38267.91, 31153.62, 23868.00, -11149.52, 12625.52, -10444.23, 12004.76, 573.21, 0.00, 0.00, 0.00
29, 38164.62, 31119.68, 24135.37, -11354.55, 13513.22, -10610.51, 11808.72, 431.46, 0.10, 0.95, 0.27
30, 38093.45, 31071.81, 24190.49, -11480.37, 14705.97, -10732.88, 11683.61, 305.48, 0.00, 0.00, 0.00
31, 38189.88, 31100.46, 23924.19, -11289.15, 13938.19, -10580.89, 11870.59, 430.85, 0.00, 0.00, 0.00
32, 38289.48, 31161.24, 23824.48, -11122.27, 12597.13, -10428.45, 12039.59, 578.17, 0.00, 0.00, 0.00
33, 38216.70, 31148.45, 24068.94, -11276.28, 13126.93, -10550.36, 11894.57, 484.94, 0.00, 0.00, 0.00
34, 38109.12, 31082.07, 24181.84, -11458.71, 14491.35, -10718.09, 11715.02, 328.17, 0.00, 0.00, 0.00
35, 38167.70, 31082.42, 23937.94, -11324.49, 14083.63, -10615.38, 11843.29, 399.74, 0.00, 0.00, 0.00
36, 38281.36, 31144.05, 23778.30, -11124.78, 12628.20, -10436.30, 12039.77, 563.29, 0.00, 0.00, 0.00
37, 38236.95, 31149.59, 23990.33, -11234.08, 12808.09, -10515.74, 11938.27, 506.22, 0.00, 0.00, 0.00
38, 38098.30, 31069.10, 24154.03, -11471.72, 14281.51, -10728.70, 11704.94, 311.63, 0.00, 0.00, 0.00
39, 38134.87, 31063.47, 23951.03, -11389.06, 14277.82, -10673.00, 11784.24, 340.82, 0.10, 0.94, 0.27
40, 38270.50, 31135.51, 23747.45, -11150.08, 12817.14, -10461.04, 12020.14, 530.61, 0.00, 0.00, 0.00
41, 38248.32, 31151.22, 23907.22, -11208.95, 12637.12, -10492.29, 11971.37, 519.12, 0.00, 0.00, 0.00
42, 38122.48, 31091.86, 24125.31, -11443.69, 14091.08, -10694.01, 11746.31, 336.68, 0.00, 0.00, 0.00
43, 38125.64, 31067.38, 23986.51, -11425.03, 14467.95, -10693.43, 11761.15, 322.38, 0.00, 0.00, 0.00
44, 38245.58, 31122.72, 23734.62, -11194.56, 13087.75, -10498.97, 11989.41, 496.48, 0.00, 0.00, 0.00
45, 38273.79, 31160.88, 23840.79, -11170.40, 12517.89, -10463.32, 12015.25, 549.43, 0.00, 0.00, 0.00
46, 38141.06, 31097.15, 24090.87, -11410.90, 13841.74, -10663.19, 11775.08, 372.96, 0.00, 0.00, 0.00
47, 38108.85, 31057.52, 24015.65, -11450.33, 14577.00, -10712.34, 11729.73, 312.32, 0.00, 0.00, 0.00
48, 38239.68, 31112.87, 23753.40, -11211.21, 13375.15, -10508.47, 11966.70, 490.02, 0.00, 0.00, 0.00
49, 38291.06, 31162.42, 23794.46, -11144.33, 12509.60, -10433.57, 12034.40, 573.28, 0.10, 0.94, 0.27
50, 38159.10, 31103.90, 24060.00, -11387.68, 13658.17, -10638.04, 11795.64, 398.76, 0.00, 0.00, 0.00
51, 38098.30, 31060.56, 24062.23, -11483.59, 14722.78, -10736.48, 11696.58, 294.91, 0.00, 0.00, 0.00
52, 38213.75, 31107.99, 23806.71, -11266.44, 13791.54, -10556.08, 11906.71, 455.19, 0.00, 0.00, 0.00
53, 38275.37, 31149.79, 23771.59, -11158.59, 12674.71, -10447.41, 12014.87, 565.63, 0.00, 0.00, 0.00
54, 38178.30, 31124.49, 24037.67, -11350.93, 13517.28, -10604.56, 11828.16, 433.71, 0.00, 0.00, 0.00
55, 38094.50, 31077.22, 24110.51, -11498.43, 14807.11, -10745.20, 11679.21, 294.26, 0.00, 0.00, 0.00
56, 38176.69, 31098.18, 23867.50, -11324.47, 14191.37, -10606.86, 11842.51, 401.35, 0.00, 0.00, 0.00
57, 38259.46, 31139.18, 23763.88, -11168.03, 12871.70, -10465.27, 11991.49, 535.23, 0.00, 0.00, 0.00
58, 38185.59, 31122.10, 23997.28, -11321.34, 13341.64, -10587.51, 11843.16, 442.77, 0.00, 0.00, 0.00
59, 38093.43, 31080.64, 24134.12, -11498.34, 14741.82, -10748.13, 11671.77, 293.30, 0.10, 0.95, 0.28
60, 38155.79, 31091.83, 23915.36, -11376.79, 14462.52, -10655.39, 11790.12, 365.81, 0.00, 0.00, 0.00
61, 38277.47, 31159.83, 23761.85, -11165.37, 13034.51, -10465.00, 11999.33, 543.42, 0.00, 0.00, 0.00
62, 38221.66, 31151.22, 23955.46, -11280.37, 13151.27, -10547.81, 11891.46, 482.84, 0.00, 0.00, 0.00
63, 38085.34, 31076.32, 24130.00, -11515.46, 14628.12, -10757.27, 11661.49, 288.87, 0.00, 0.00, 0.00
64, 38119.49, 31075.49, 23957.13, -11440.92, 14718.49, -10713.01, 11728.54, 306.13, 0.00, 0.00, 0.00
65, 38263.17, 31150.48, 23766.90, -11192.01, 13256.22, -10498.57, 11968.78, 495.74, 0.00, 0.00, 0.00
66, 38252.64, 31169.86, 23917.66, -11231.91, 12965.87, -10515.40, 11927.58, 497.35, 0.00, 0.00, 0.00
67, 38125.32, 31113.74, 24145.11, -11462.26, 14369.56, -10710.31, 11695.68, 319.72, 0.00, 0.00, 0.00
68, 38107.96, 31080.26, 24020.88, -11462.26, 14826.78, -10728.66, 11690.14, 276.67, 0.00, 0.00, 0.00
69, 38230.45, 31130.79, 23779.04, -11229.81, 13484.34, -10534.40, 11918.46, 454.55, 0.10, 0.95, 0.28
70, 38258.94, 31170.04, 23869.25, -11201.69, 12833.43, -10492.83, 11951.99, 504.43, 0.00, 0.00, 0.00
71, 38134.55, 31116.78, 24127.88, -11435.24, 14094.88, -10688.92, 11724.05, 329.42, 0.00, 0.00, 0.00
72, 38089.90, 31071.85, 24070.50, -11495.59, 14893.82, -10761.54, 11656.97, 244.95, 0.00, 0.00, 0.00
73, 38216.65, 31123.19, 23813.86, -11261.86, 13729.85, -10567.93, 11883.53, 410.65, 0.00, 0.00, 0.00
74, 38269.40, 31169.26, 23832.95, -11180.54, 12767.88, -10482.30, 11966.12, 498.73, 0.00, 0.00, 0.00
75, 38144.32, 31117.96, 24080.94, -11411.55, 13805.89, -10673.61, 11742.69, 335.30, 0.00, 0.00, 0.00
76, 38076.78, 31069.73, 24094.11, -11524.02, 14895.67, -10784.13, 11627.35, 220.99, 0.00, 0.00, 0.00
77, 38186.77, 31109.11, 23841.40, -11316.35, 14012.84, -10610.93, 11828.54, 365.07, 0.00, 0.00, 0.00
78, 38271.59, 31166.22, 23797.30, -11177.75, 12807.88, -10479.66, 11965.60, 493.86, 0.00, 0.00, 0.00
79, 38180.60, 31141.07, 24048.20, -11358.93, 13532.53, -10628.37, 11786.03, 371.02, 0.10, 0.95, 0.28
80, 38077.58, 31076.32, 24117.29, -11527.49, 14830.49, -10791.22, 11613.16, 210.80, 0.00, 0.00, 0.00
81, 38164.89, 31105.87, 23876.98, -11355.74, 14264.12, -10657.92, 11774.32, 312.19, 0.00, 0.00, 0.00
82, 38280.45, 31180.19, 23772.11, -11158.30, 12885.07, -10477.65, 11968.26, 483.65, 0.00, 0.00, 0.00
83, 38206.48, 31164.68, 23992.07, -11305.31, 13265.22, -10588.13, 11824.41, 398.84, 0.00, 0.00, 0.00
84, 38076.31, 31081.40, 24117.04, -11523.11, 14699.98, -10786.50, 11605.63, 209.01, 0.00, 0.00, 0.00
85, 38136.93, 31092.48, 23917.39, -11397.98, 14496.58, -10694.06, 11722.80, 267.82, 0.00, 0.00, 0.00
86, 38252.30, 31151.56, 23750.16, -11185.04, 13057.33, -10502.95, 11931.05, 442.61, 0.00, 0.00, 0.00
87, 38222.40, 31165.10, 23934.00, -11258.60, 13056.35, -10546.85, 11865.11, 419.25, 0.00, 0.00, 0.00
88, 38101.03, 31102.79, 24125.18, -11482.14, 14498.55, -10742.72, 11645.39, 245.38, 0.00, 0.00, 0.00
89, 38117.17, 31085.08, 23963.68, -11435.20, 14676.56, -10719.61, 11689.67, 248.08, 0.11, 0.95, 0.28
90, 38242.78, 31143.53, 23753.89, -11202.25, 13244.17, -10520.43, 11919.02, 424.15, 0.00, 0.00, 0.00
91, 38246.23, 31168.59, 23885.32, -11221.85, 12849.82, -10521.75, 11905.37, 444.78, 0.00, 0.00, 0.00
92, 38121.97, 31111.59, 24114.51, -11456.83, 14209.07, -10722.44, 11677.36, 268.24, 0.00, 0.00, 0.00
93, 38110.41, 31086.71, 24009.48, -11462.44, 14758.79, -10740.53, 11668.97, 229.06, 0.00, 0.00, 0.00
94, 38242.74, 31146.55, 23772.06, -11221.16, 13467.69, -10536.63, 11902.84, 408.39, 0.00, 0.00, 0.00
95, 38270.16, 31180.50, 23841.24, -11189.86, 12751.87, -10497.25, 11937.24, 457.92, 0.00, 0.00, 0.00
96, 38140.64, 31125.99, 24085.10, -11429.23, 13971.52, -10699.09, 11703.48, 281.25, 0.00, 0.00, 0.00
97, 38077.18, 31065.30, 24030.49, -11518.52, 14858.21, -10793.01, 11609.90, 179.48, 0.00, 0.00, 0.00
98, 38198.44, 31110.23, 23778.59, -11292.41, 13771.04, -10596.98, 11827.87, 341.60, 0.10, 0.94, 0.28
99, 38272.06, 31169.86, 23797.39, -11181.28, 12749.19, -10478.86, 11940.32, 458.50, 0.00, 0.00, 0.00
100, 38156.50, 31123.30, 24049.72, -11396.01, 13717.00, -10653.31, 11729.35, 308.48, 0.00, 0.00, 0.00
101, 38076.00, 31067.56, 24074.24, -11527.93, 14877.75, -10782.06, 11595.93, 180.00, 0.00, 0.00, 0.00
102, 38172.75, 31097.89, 23826.38, -11336.83, 14089.02, -10629.91, 11779.19, 303.45, 0.00, 0.00, 0.00
103, 38255.99, 31153.66, 23766.59, -11190.91, 12848.07, -10494.46, 11920.81, 435.10, 0.00, 0.00, 0.00
104, 38190.52, 31147.96, 24011.74, -11345.01, 13488.92, -10613.93, 11772.84, 341.29, 0.00, 0.00, 0.00
105, 38091.35, 31086.67, 24094.93, -11523.46, 14835.39, -10772.47, 11597.38, 190.35, 0.00, 0.00, 0.00
106, 38153.78, 31090.22, 23854.52, -11387.86, 14378.83, -10671.08, 11729.28, 266.19, 0.00, 0.00, 0.00
107, 38260.78, 31151.09, 23730.09, -11200.75, 12984.11, -10500.42, 11915.40, 426.76, 0.00, 0.00, 0.00
108, 38195.35, 31135.06, 23931.95, -11331.69, 13261.76, -10599.13, 11791.82, 350.86, 0.10, 0.94, 0.28
109, 38071.64, 31064.34, 24070.97, -11546.33, 14698.31, -10790.17, 11581.67, 171.84, 0.00, 0.00, 0.00
110, 38111.27, 31061.39, 23875.82, -11455.60, 14607.85, -10728.61, 11667.07, 207.87, 0.00, 0.00, 0.00
111, 38244.82, 31133.70, 23709.57, -11225.00, 13154.78, -10528.59, 11891.40, 393.03, 0.00, 0.00, 0.00
112, 38221.32, 31147.96, 23881.03, -11293.91, 13047.41, -10574.27, 11826.58, 371.26, 0.00, 0.00, 0.00
113, 38092.78, 31082.60, 24071.84, -11529.28, 14484.73, -10781.39, 11593.65, 181.88, 0.00, 0.00, 0.00
114, 38101.86, 31063.67, 23922.71, -11494.99, 14764.04, -10769.94, 11620.36, 169.40, 0.00, 0.00, 0.00
115, 38224.68, 31116.06, 23704.11, -11265.55, 13377.14, -10570.97, 11842.13, 346.81, 0.00, 0.00, 0.00
116, 38239.88, 31150.08, 23826.02, -11261.01, 12903.95, -10548.44, 11847.74, 376.36, 0.00, 0.00, 0.00
117, 38115.49, 31095.88, 24054.75, -11494.54, 14226.24, -10748.95, 11617.86, 193.54, 0.00, 0.00, 0.00
118, 38079.59, 31052.05, 23948.80, -11531.44, 14842.43, -10798.93, 11577.00, 130.47, 0.10, 0.94, 0.28
119, 38203.42, 31101.15, 23707.11, -11296.66, 13572.40, -10598.41, 11804.85, 309.15, 0.00, 0.00, 0.00
120, 38248.32, 31147.58, 23758.32, -11234.23, 12738.73, -10530.51, 11870.54, 379.73, 0.00, 0.00, 0.00
121, 38133.15, 31104.98, 23995.92, -11454.20, 13850.68, -10713.46, 11658.09, 222.98, 0.00, 0.00, 0.00
122, 38085.65, 31059.96, 23959.82, -11533.68, 14768.27, -10799.49, 11575.05, 130.82, 0.00, 0.00, 0.00
123, 38196.29, 31097.49, 23712.32, -11320.00, 13739.10, -10624.72, 11782.54, 280.25, 0.00, 0.00, 0.00
124, 38264.53, 31150.60, 23698.77, -11211.57, 12656.88, -10519.67, 11890.86, 385.41, 0.00, 0.00, 0.00
125, 38159.03, 31118.30, 23943.50, -11418.79, 13566.95, -10688.18, 11688.60, 243.08, 0.00, 0.00, 0.00
126, 38080.35, 31070.09, 23983.71, -11558.35, 14815.34, -10816.14, 11548.10, 112.03, 0.00, 0.00, 0.00
127, 38161.73, 31083.32, 23732.95, -11392.71, 14120.38, -10683.91, 11703.62, 214.02, 0.00, 0.00, 0.00
128, 38270.34, 31151.40, 23663.01, -11212.28, 12799.70, -10518.82, 11880.24, 371.73, 0.10, 0.94, 0.28
129, 38185.81, 31123.53, 23882.97, -11374.27, 13309.88, -10646.22, 11726.71, 272.80, 0.00, 0.00, 0.00
130, 38068.28, 31046.26, 23967.06, -11567.50, 14640.19, -10822.74, 11536.52, 94.93, 0.00, 0.00, 0.00
131, 38146.00, 31066.49, 23757.96, -11421.00, 14241.19, -10707.29, 11676.86, 183.28, 0.00, 0.00, 0.00
132, 38265.80, 31138.24, 23637.55, -11213.89, 12814.48, -10520.07, 11880.15, 357.92, 0.00, 0.00, 0.00
133, 38211.27, 31131.53, 23827.85, -11328.13, 12992.58, -10604.45, 11770.36, 299.47, 0.00, 0.00, 0.00
134, 38095.02, 31072.61, 23981.83, -11542.15, 14428.74, -10795.91, 11559.45, 126.87, 0.00, 0.00, 0.00
135, 38125.95, 31064.10, 23796.85, -11470.96, 14433.48, -10750.09, 11626.33, 154.38, 0.00, 0.00, 0.00
136, 38243.43, 31121.65, 23611.69, -11249.45, 13007.66, -10558.20, 11841.86, 328.73, 0.00, 0.00, 0.00
137, 38235.30, 31146.06, 23765.56, -11284.37, 12799.68, -10572.91, 11806.57, 328.55, 0.00, 0.00, 0.00
138, 38112.58, 31088.24, 23966.72, -11510.75, 14194.32, -10770.61, 11581.24, 149.73, 0.09, 0.94, 0.29
139, 38099.62, 31053.12, 23827.65, -11502.25, 14565.00, -10781.16, 11583.70, 122.44, 0.00, 0.00, 0.00
140, 38222.42, 31105.87, 23613.50, -11267.54, 13206.82, -10581.45, 11814.51, 304.92, 0.00, 0.00, 0.00
141, 38237.82, 31136.40, 23712.88, -11255.24, 12652.07, -10555.30, 11828.97, 338.81, 0.00, 0.00, 0.00
142, 38116.36, 31083.97, 23943.01, -11491.52, 13930.93, -10748.44, 11595.50, 159.84, 0.00, 0.00, 0.00
143, 38093.56, 31056.43, 23864.80, -11530.10, 14627.16, -10794.04, 11557.73, 100.11, 0.00, 0.00, 0.00
144, 38217.93, 31108.02, 23624.23, -11301.82, 13432.79, -10598.06, 11780.78, 274.39, 0.00, 0.00, 0.00
145, 38270.10, 31155.16, 23653.53, -11225.78, 12546.53, -10518.57, 11853.93, 367.35, 0.00, 0.00, 0.00
146, 38156.57, 31107.19, 23887.38, -11441.57, 13603.90, -10698.48, 11640.16, 212.27, 0.00, 0.00, 0.00
147, 38091.68, 31058.82, 23868.55, -11541.08, 14595.24, -10800.07, 11535.58, 103.89, 0.00, 0.00, 0.00
148, 38187.75, 31084.39, 23611.64, -11341.19, 13636.13, -10643.30, 11722.68, 229.91, 0.10, 0.94, 0.29
149, 38273.76, 31144.21, 23585.43, -11200.06, 12472.70, -10516.36, 11858.25, 353.72, 0.00, 0.00, 0.00
150, 38189.03, 31125.79, 23838.31, -11373.51, 13255.66, -10655.66, 11689.69, 242.18, 0.00, 0.00, 0.00
151, 38090.30, 31055.83, 23887.11, -11536.03, 14504.69, -10808.57, 11529.72, 96.65, 0.00, 0.00, 0.00
152, 38184.33, 31083.59, 23655.95, -11360.03, 13864.67, -10665.54, 11698.68, 209.61, 0.00, 0.00, 0.00
153, 38268.06, 31130.66, 23556.57, -11202.34, 12537.52, -10518.48, 11851.61, 346.43, 0.00, 0.00, 0.00
154, 38209.43, 31122.59, 23768.46, -11332.54, 12958.11, -10622.20, 11722.57, 263.50, 0.00, 0.00, 0.00
155, 38115.87, 31070.22, 23884.25, -11510.48, 14303.06, -10783.84, 11545.86, 112.59, 0.00, 0.00, 0.00
156, 38169.71, 31075.94, 23676.11, -11394.61, 14011.15, -10696.40, 11653.24, 174.92, 0.00, 0.00, 0.00
157, 38284.25, 31138.08, 23534.89, -11189.89, 12602.00, -10514.64, 11851.05, 340.95, 0.00, 0.00, 0.00
158, 38250.54, 31148.92, 23730.11, -11280.99, 12709.83, -10578.14, 11762.02, 301.46, 0.10, 0.94, 0.29
159, 38120.88, 31078.78, 23891.64, -11515.64, 14169.69, -10786.71, 11527.29, 108.83, 0.00, 0.00, 0.00
160, 38146.47, 31070.00, 23728.63, -11455.65, 14274.36, -10749.38, 11591.48, 125.13, 0.00, 0.00, 0.00
161, 38263.61, 31123.19, 23538.15, -11237.25, 12867.97, -10558.52, 11807.53, 297.48, 0.00, 0.00, 0.00
162, 38253.09, 31138.97, 23672.42, -11267.83, 12591.16, -10567.55, 11776.44, 302.66, 0.00, 0.00, 0.00
163, 38123.92, 31076.46, 23875.75, -11498.70, 13966.62, -10765.49, 11544.99, 121.97, 0.00, 0.00, 0.00
164, 38110.75, 31049.05, 23755.61, -11495.30, 14419.18, -10776.02, 11542.73, 95.71, 0.00, 0.00, 0.00
165, 38234.18, 31094.72, 23528.70, -11267.67, 13094.68, -10583.62, 11765.62, 266.72, 0.00, 0.00, 0.00
166, 38264.02, 31127.78, 23601.70, -11237.25, 12431.24, -10543.67, 11798.50, 312.79, 0.00, 0.00, 0.00
167, 38143.72, 31079.45, 23832.64, -11462.62, 13661.52, -10732.06, 11576.15, 151.50, 0.00, 0.00, 0.00
168, 38104.83, 31043.80, 23774.03, -11519.71, 14459.43, -10804.52, 11509.47, 72.55, 0.11, 0.94, 0.29
169, 38229.89, 31096.42, 23535.56, -11292.75, 13325.66, -10622.80, 11725.70, 229.80, 0.00, 0.00, 0.00
170, 38299.33, 31154.80, 23561.71, -11208.97, 12369.50, -10539.00, 11808.90, 316.23, 0.00, 0.00, 0.00
171, 38184.51, 31113.58, 23802.08, -11413.34, 13383.26, -10705.57, 11608.36, 170.10, 0.00, 0.00, 0.00
172, 38101.21, 31054.19, 23796.65, -11526.48, 14479.71, -10812.48, 11495.30, 63.55, 0.00, 0.00, 0.00
173, 38204.76, 31093.94, 23542.40, -11332.76, 13637.13, -10648.57, 11687.70, 205.55, 0.00, 0.00, 0.00
174, 38307.34, 31165.15, 23503.08, -11190.60, 12435.42, -10505.68, 11836.83, 343.28, 0.00, 0.00, 0.00
175, 38237.60, 31147.22, 23726.42, -11366.24, 13130.20, -10643.25, 11664.88, 222.40, 0.00, 0.00, 0.00
176, 38152.71, 31093.15, 23783.15, -11526.28, 14404.40, -10793.41, 11491.72, 72.78, 0.00, 0.00, 0.00
177, 38221.13, 31103.37, 23546.45, -11378.87, 13855.94, -10683.08, 11618.62, 155.88, 0.00, 0.00, 0.00
178, 38332.04, 31171.50, 23448.86, -11185.51, 12469.84, -10508.96, 11807.06, 315.96, 0.10, 0.94, 0.29
179, 38267.39, 31165.06, 23657.18, -11319.55, 12807.37, -10610.75, 11679.30, 239.86, 0.00, 0.00, 0.00
180, 38143.90, 31095.05, 23772.64, -11530.73, 14201.61, -10804.65, 11470.11, 58.23, 0.00, 0.00, 0.00
181, 38188.49, 31091.52, 23568.66, -11434.86, 14012.35, -10741.89, 11560.19, 100.65, 0.00, 0.00, 0.00
182, 38309.82, 31154.60, 23415.66, -11221.51, 12572.32, -10555.10, 11771.90, 270.57, 0.00, 0.00, 0.00
183, 38281.92, 31165.51, 23578.94, -11299.81, 12545.68, -10600.36, 11699.57, 239.97, 0.00, 0.00, 0.00
184, 38164.42, 31107.99, 23740.66, -11520.58, 13969.75, -10788.99, 11482.90, 65.96, 0.00, 0.00, 0.00
185, 38199.04, 31111.48, 23603.42, -11453.66, 14147.27, -10749.56, 11542.46, 83.55, 0.00, 0.00, 0.00
186, 38315.14, 31161.42, 23414.50, -11234.28, 12740.45, -10562.27, 11755.16, 251.66, 0.00, 0.00, 0.00
187, 38314.67, 31182.40, 23539.98, -11253.16, 12339.26, -10560.64, 11741.62, 269.54, 0.10, 0.93, 0.28
188, 38193.14, 31127.17, 23750.20, -11484.26, 13678.15, -10755.03, 11513.67, 98.15, 0.00, 0.00, 0.00
189, 38175.30, 31098.61, 23645.51, -11501.40, 14238.91, -10786.64, 11493.13, 55.90, 0.00, 0.00, 0.00
190, 38308.63, 31160.99, 23433.43, -11257.46, 12972.06, -10578.95, 11728.29, 237.96, 0.00, 0.00, 0.00
191, 38342.47, 31199.53, 23504.36, -11218.63, 12254.52, -10524.92, 11766.05, 297.37, 0.00, 0.00, 0.00
192, 38217.70, 31147.33, 23728.25, -11457.26, 13458.25, -10722.67, 11530.57, 120.61, 0.00, 0.00, 0.00
193, 38163.50, 31100.80, 23683.46, -11538.46, 14350.00, -10811.65, 11445.66, 26.55, 0.00, 0.00, 0.00
194, 38281.21, 31147.22, 23454.56, -11320.22, 13282.61, -10634.11, 11652.84, 179.08, 0.00, 0.00, 0.00
195, 38335.03, 31184.66, 23459.54, -11228.98, 12257.56, -10546.87, 11739.81, 266.61, 0.00, 0.00, 0.00
196, 38228.57, 31145.17, 23689.12, -11431.78, 13168.11, -10716.03, 11540.18, 118.35, 0.00, 0.00, 0.00
197, 38155.30, 31096.15, 23712.36, -11557.89, 14290.54, -10836.26, 11408.98, -6.03, 0.11, 0.94, 0.28
198, 38254.85, 31131.24, 23490.90, -11367.78, 13508.48, -10681.65, 11590.00, 120.36, 0.00, 0.00, 0.00
199, 38346.41, 31189.33, 23443.96, -11212.62, 12265.65, -10537.62, 11744.03, 262.90, 0.00, 0.00, 0.00
200, 38267.75, 31166.62, 23671.35, -11377.55, 12878.47, -10663.03, 11585.58, 163.99, 0.00, 0.00, 0.00
201, 38158.45, 31098.27, 23743.95, -11566.02, 14206.08, -10831.10, 11398.47, 2.24, 0.00, 0.00, 0.00
202, 38226.49, 31112.53, 23533.97, -11427.80, 13765.63, -10725.69, 11530.88, 83.17, 0.00, 0.00, 0.00
203, 38338.00, 31178.85, 23433.61, -11234.41, 12387.07, -10549.46, 11720.34, 253.83, 0.00, 0.00, 0.00
204, 38289.86, 31182.58, 23629.77, -11347.85, 12639.53, -10627.96, 11611.22, 202.62, 0.00, 0.00, 0.00
205, 38174.99, 31119.15, 23752.62, -11565.66, 14054.20, -10815.63, 11401.58, 28.54, 0.00, 0.00, 0.00
206, 38205.52, 31113.20, 23567.68, -11492.62, 13991.32, -10762.05, 11471.38, 56.82, 0.00, 0.00, 0.00
207, 38323.61, 31176.12, 23417.86, -11278.18, 12585.78, -10568.26, 11679.01, 227.25, 0.11, 0.94, 0.28
208, 38299.51, 31186.40, 23573.18, -11343.44, 12493.57, -10606.26, 11616.58, 200.81, 0.00, 0.00, 0.00
209, 38177.40, 31125.38, 23741.73, -11573.71, 13922.95, -10803.29, 11389.96, 28.19, 0.00, 0.00, 0.00
210, 38181.25, 31104.40, 23596.13, -11551.02, 14225.90, -10802.71, 11406.83, 12.54, 0.00, 0.00, 0.00
211, 38304.12, 31156.07, 23403.26, -11324.89, 12862.15, -10610.57, 11630.48, 177.99, 0.00, 0.00, 0.00
212, 38323.45, 31193.36, 23518.46, -11315.15, 12383.38, -10585.16, 11644.68, 215.16, 0.00, 0.00, 0.00
213, 38199.93, 31142.86, 23725.35, -11545.77, 13709.20, -10773.65, 11417.00, 56.86, 0.00, 0.00, 0.00
214, 38160.13, 31096.44, 23634.94, -11601.27, 14379.30, -10835.21, 11358.98, -21.97, 0.00, 0.00, 0.00
215, 38274.32, 31139.87, 23428.27, -11384.21, 13185.38, -10657.83, 11573.02, 128.32, 0.00, 0.00, 0.00
216, 38321.73, 31188.17, 23491.86, -11316.24, 12397.53, -10588.45, 11634.82, 202.42, 0.00, 0.00, 0.00
217, 38221.46, 31156.14, 23714.51, -11519.89, 13518.31, -10754.59, 11430.46, 51.54, 0.10, 0.94, 0.28
218, 38158.45, 31105.04, 23671.44, -11615.69, 14470.65, -10849.65, 11330.12, -52.88, 0.00, 0.00, 0.00
219, 38270.90, 31145.68, 23444.65, -11404.98, 13469.52, -10679.15, 11532.32, 85.50, 0.00, 0.00, 0.00
220, 38335.39, 31192.15, 23438.13, -11297.80, 12360.94, -10573.96, 11637.99, 188.27, 0.00, 0.00, 0.00
221, 38232.86, 31153.62, 23638.22, -11495.61, 13182.95, -10730.22, 11448.76, 53.09, 0.00, 0.00, 0.00
222, 38160.59, 31109.67, 23667.57, -11631.98, 14363.36, -10852.20, 11314.03, -73.63, 0.00, 0.00, 0.00
223, 38236.01, 31129.12, 23443.02, -11478.00, 13699.63, -10728.73, 11459.54, 24.10, 0.00, 0.00, 0.00
224, 38323.92, 31197.18, 23388.17, -11326.08, 12471.56, -10582.70, 11606.72, 158.34, 0.00, 0.00, 0.00
225, 38250.92, 31172.55, 23582.23, -11472.05, 13014.21, -10698.35, 11465.13, 65.22, 0.00, 0.00, 0.00
226, 38131.29, 31091.92, 23646.65, -11668.93, 14366.52, -10879.08, 11264.34, -105.46, 0.00, 0.00, 0.00
227, 38184.09, 31090.83, 23444.59, -11544.38, 14014.57, -10789.16, 11375.50, -37.80, 0.10, 0.94, 0.28
228, 38305.73, 31160.07, 23341.05, -11332.16, 12615.30, -10600.87, 11579.30, 133.80, 0.00, 0.00, 0.00
229, 38268.27, 31168.68, 23521.68, -11418.37, 12772.77, -10660.28, 11491.21, 92.38, 0.00, 0.00, 0.00
230, 38153.06, 31112.60, 23653.73, -11627.20, 14180.01, -10846.88, 11279.96, -74.88, 0.00, 0.00, 0.00
231, 38186.57, 31110.79, 23491.08, -11550.35, 14179.05, -10799.02, 11350.30, -45.35, 0.00, 0.00, 0.00
232, 38313.62, 31170.04, 23345.64, -11321.07, 12757.93, -10598.28, 11575.16, 133.69, 0.00, 0.00, 0.00
233, 38315.80, 31199.30, 23493.92, -11348.72, 12535.06, -10603.71, 11549.91, 144.12, 0.00, 0.00, 0.00
234, 38196.98, 31145.46, 23666.92, -11575.39, 13916.71, -10794.15, 11326.05, -28.14, 0.00, 0.00, 0.00
235, 38185.03, 31113.85, 23540.32, -11576.24, 14304.92, -10812.99, 11322.03, -60.89, 0.00, 0.00, 0.00
236, 38309.08, 31170.13, 23355.34, -11345.43, 12972.82, -10616.88, 11547.83, 114.35, 0.00, 0.00, 0.00
237, 38324.28, 31196.91, 23449.42, -11333.52, 12418.14, -10592.18, 11560.93, 150.34, 0.10, 0.94, 0.27
238, 38199.11, 31144.21, 23646.76, -11565.33, 13686.93, -10788.49, 11328.51, -27.94, 0.00, 0.00, 0.00
239, 38156.33, 31104.60, 23572.91, -11623.62, 14408.76, -10856.51, 11261.84, -102.66, 0.00, 0.00, 0.00
240, 38270.68, 31147.78, 23374.74, -11400.78, 13251.48, -10675.68, 11475.30, 56.59, 0.00, 0.00, 0.00
241, 38326.45, 31194.65, 23426.75, -11320.42, 12371.31, -10594.59, 11555.67, 144.79, 0.00, 0.00, 0.00
242, 38210.86, 31145.81, 23638.11, -11546.75, 13424.90, -10776.76, 11336.22, -11.71, 0.00, 0.00, 0.00
243, 38133.17, 31087.12, 23612.45, -11669.89, 14444.01, -10894.60, 11211.72, -138.98, 0.00, 0.00, 0.00
244, 38235.61, 31123.78, 23400.11, -11472.05, 13523.86, -10730.54, 11403.66, -4.72, 0.00, 0.00, 0.00
245, 38321.19, 31186.96, 23396.33, -11334.99, 12377.34, -10594.93, 11542.98, 132.81, 0.00, 0.00, 0.00
246, 38218.78, 31145.59, 23595.33, -11529.86, 13158.32, -10750.85, 11351.80, 2.30, 0.00, 0.00, 0.00
247, 38142.16, 31099.97, 23640.86, -11674.85, 14406.26, -10883.24, 11205.17, -130.42, 0.10, 0.94, 0.28
248, 38218.73, 31122.86, 23443.63, -11515.64, 13822.39, -10760.26, 11356.63, -29.66, 0.00, 0.00, 0.00
249, 38307.43, 31172.03, 23378.92, -11346.95, 12531.37, -10610.08, 11520.71, 114.17, 0.00, 0.00, 0.00
250, 38245.87, 31165.35, 23584.24, -11476.95, 12982.18, -10710.62, 11392.10, 35.87, 0.00, 0.00, 0.00
251, 38138.54, 31108.91, 23681.56, -11668.35, 14379.39, -10884.90, 11196.28, -132.26, 0.00, 0.00, 0.00
252, 38197.77, 31120.40, 23503.33, -11549.35, 14139.62, -10792.96, 11306.88, -66.99, 0.00, 0.00, 0.00
253, 38301.66, 31173.73, 23378.43, -11355.36, 12761.06, -10618.11, 11495.01, 91.31, 0.00, 0.00, 0.00
254, 38270.01, 31177.62, 23543.23, -11442.44, 12827.69, -10678.19, 11409.09, 44.57, 0.00, 0.00, 0.00
255, 38161.73, 31120.06, 23680.82, -11667.77, 14237.35, -10874.26, 11183.52, -136.37, 0.00, 0.00, 0.00
0, 38187.37, 31121.99, 23526.02, -11617.90, 14351.52, -10849.20, 11220.67, -130.85, 0.00, 0.00, 0.00
1, 38293.03, 31179.99, 23377.78, -11384.77, 12958.92, -10645.96, 11452.12, 54.00, 0.09, 0.94, 0.27
2, 38265.94, 31184.26, 23517.74, -11405.74, 12666.38, -10650.09, 11429.47, 65.07, 0.00, 0.00, 0.00
3, 38153.38, 31132.43, 23703.49, -11623.78, 14025.12, -10840.37, 11210.96, -108.56, 0.00, 0.00, 0.00
4, 38130.71, 31093.76, 23583.79, -11646.98, 14505.50, -10878.95, 11182.26, -161.20, 0.00, 0.00, 0.00
5, 38253.82, 31147.38, 23388.84, -11421.96, 13216.45, -10689.48, 11401.02, 9.97, 0.00, 0.00, 0.00
6, 38281.68, 31179.77, 23472.44, -11394.45, 12574.44, -10648.95, 11431.49, 63.19, 0.00, 0.00, 0.00
7, 38174.97, 31138.82, 23676.71, -11609.74, 13777.68, -10825.22, 11216.06, -95.26, 0.00, 0.00, 0.00
8, 38134.02, 31101.24, 23608.29, -11676.35, 14564.62, -10892.90, 11142.93, -178.28, 0.00, 0.00, 0.00
9, 38248.82, 31148.41, 23399.06, -11463.63, 13455.26, -10715.36, 11351.65, -21.32, 0.00, 0.00, 0.00
10, 38299.67, 31184.28, 23421.54, -11380.86, 12507.10, -10633.37, 11433.77, 67.55, 0.00, 0.00, 0.00
11, 38199.35, 31145.41, 23627.09, -11577.91, 13472.18, -10792.81, 11241.76, -71.35, 0.09, 0.94, 0.27
12, 38123.56, 31089.78, 23616.49, -11703.48, 14540.77, -10906.69, 11112.48, -192.76, 0.00, 0.00, 0.00
13, 38214.51, 31111.44, 23395.86, -11520.58, 13700.93, -10758.77, 11286.65, -67.95, 0.00, 0.00, 0.00
14, 38294.24, 31162.80, 23366.98, -11379.72, 12506.20, -10627.38, 11425.79, 60.06, 0.00, 0.00, 0.00
15, 38204.02, 31135.11, 23571.17, -11555.81, 13183.59, -10767.57, 11254.97, -55.48, 0.00, 0.00, 0.00
16, 38115.91, 31082.98, 23620.76, -11716.34, 14448.12, -10915.38, 11095.03, -201.03, 0.00, 0.00, 0.00
17, 38190.37, 31101.91, 23423.44, -11567.61, 13927.37, -10799.56, 11237.29, -107.67, 0.00, 0.00, 0.00
18, 38287.15, 31153.97, 23336.54, -11392.21, 12600.93, -10638.51, 11410.95, 52.59, 0.00, 0.00, 0.00
19, 38242.67, 31153.75, 23520.52, -11501.78, 12941.30, -10712.95, 11304.68, -1.97, 0.00, 0.00, 0.00
20, 38141.91, 31102.70, 23620.85, -11691.97, 14325.41, -10881.77, 11113.38, -164.93, 0.10, 0.95, 0.27
21, 38183.75, 31105.31, 23445.93, -11602.25, 14156.07, -10819.16, 11192.59, -123.74, 0.00, 0.00, 0.00
22, 38290.95, 31156.77, 23315.33, -11400.22, 12750.93, -10642.58, 11386.42, 39.96, 0.00, 0.00, 0.00
23, 38276.49, 31177.35, 23474.09, -11455.94, 12713.83, -10677.34, 11330.23, 19.13, 0.00, 0.00, 0.00
24, 38164.08, 31123.30, 23618.06, -11675.52, 14114.08, -10872.49, 11110.85, -159.95, 0.00, 0.00, 0.00
25, 38162.72, 31097.22, 23464.03, -11650.29, 14324.61, -10868.80, 11130.41, -168.11, 0.00, 0.00, 0.00
26, 38287.20, 31157.79, 23304.35, -11418.03, 12949.35, -10671.30, 11351.69, 8.29, 0.00, 0.00, 0.00
27, 38291.18, 31180.24, 23421.21, -11433.27, 12559.38, -10667.41, 11334.46, 23.49, 0.00, 0.00, 0.00
28, 38180.33, 31132.36, 23596.38, -11656.61, 13874.55, -10851.41, 11119.50, -145.49, 0.00, 0.00, 0.00
29, 38163.88, 31107.75, 23501.67, -11673.56, 14422.19, -10875.40, 11097.15, -186.88, 0.00, 0.00, 0.00
30, 38273.52, 31151.13, 23304.89, -11458.31, 13179.64, -10692.05, 11306.54, -25.68, 0.10, 0.95, 0.27
31, 38305.26, 31179.86, 23362.04, -11417.76, 12449.83, -10641.31, 11348.16, 32.99, 0.00, 0.00, 0.00
32, 38180.13, 31123.13, 23538.60, -11646.53, 13594.24, -10832.59, 11119.63, -135.88, 0.00, 0.00, 0.00
33, 38133.71, 31084.44, 23484.17, -11716.85, 14444.57, -10913.84, 11042.12, -222.22, 0.00, 0.00, 0.00
34, 38243.57, 31128.98, 23288.73, -11503.37, 13398.89, -10739.03, 11247.62, -70.07, 0.00, 0.00, 0.00
35, 38302.02, 31174.47, 23305.60, -11404.02, 12386.38, -10642.36, 11344.83, 33.73, 0.00, 0.00, 0.00
36, 38211.00, 31145.90, 23505.00, -11593.74, 13274.01, -10795.94, 11159.40, -94.37, 0.00, 0.00, 0.00
37, 38132.54, 31095.28, 23506.28, -11730.20, 14396.74, -10923.21, 11022.79, -220.25, 0.00, 0.00, 0.00
38, 38224.92, 31127.75, 23310.28, -11550.69, 13637.11, -10779.20, 11192.68, -102.73, 0.00, 0.00, 0.00
39, 38311.63, 31184.77, 23280.77, -11400.01, 12409.22, -10635.38, 11338.26, 33.28, 0.00, 0.00, 0.00
40, 38239.32, 31169.62, 23479.34, -11556.37, 12995.55, -10756.60, 11187.85, -67.70, 0.10, 0.95, 0.27
41, 38141.30, 31109.45, 23540.92, -11733.93, 14307.31, -10915.85, 11010.20, -221.86, 0.00, 0.00, 0.00
42, 38203.49, 31119.86, 23350.64, -11601.78, 13885.22, -10818.36, 11130.34, -147.03, 0.00, 0.00, 0.00
43, 38308.18, 31178.96, 23265.46, -11405.29, 12523.39, -10641.42, 11319.55, 20.88, 0.00, 0.00, 0.00
44, 38250.79, 31170.58, 23435.24, -11519.28, 12770.13, -10726.58, 11205.33, -39.23, 0.00, 0.00, 0.00
45, 38135.29, 31105.27, 23533.17, -11732.65, 14166.38, -10918.29, 10987.85, -220.81, 0.00, 0.00, 0.00
46, 38171.82, 31103.01, 23372.97, -11648.50, 14093.91, -10859.86, 11058.99, -188.56, 0.00, 0.00, 0.00
47, 38286.26, 31161.59, 23246.86, -11428.36, 12692.95, -10668.46, 11271.38, -12.99, 0.00, 0.00, 0.00
48, 38263.95, 31173.26, 23386.29, -11488.57, 12567.11, -10706.08, 11211.39, -34.24, 0.00, 0.00, 0.00
49, 38147.79, 31118.19, 23532.56, -11712.69, 13945.74, -10899.51, 10989.46, -210.13, 0.00, 0.00, 0.00
50, 38154.74, 31101.65, 23404.20, -11692.58, 14227.06, -10898.17, 11003.05, -222.24, 0.10, 0.95, 0.27
51, 38267.84, 31150.82, 23239.31, -11474.63, 12881.20, -10706.33, 11212.62, -53.67, 0.00, 0.00, 0.00
52, 38296.27, 31191.41, 23350.60, -11450.62, 12383.02, -10663.77, 11236.33, -6.86, 0.00, 0.00, 0.00
53, 38180.45, 31142.62, 23532.45, -11676.98, 13653.32, -10853.74, 11013.67, -174.14, 0.00, 0.00, 0.00
54, 38134.82, 31091.52, 23433.17, -11732.43, 14288.33, -10918.20, 10951.08, -248.46, 0.00, 0.00, 0.00
55, 38261.96, 31146.80, 23264.66, -11498.88, 13073.71, -10721.04, 11175.54, -75.93, 0.00, 0.00, 0.00
56, 38304.68, 31185.85, 23330.82, -11435.76, 12259.04, -10652.08, 11237.07, 0.11, 0.00, 0.00, 0.00
57, 38199.87, 31146.91, 23536.47, -11640.86, 13331.47, -10823.07, 11033.63, -149.40, 0.00, 0.00, 0.00
58, 38144.21, 31100.78, 23505.18, -11739.34, 14259.74, -10923.72, 10929.02, -254.09, 0.00, 0.00, 0.00
59, 38238.16, 31127.82, 23306.61, -11545.59, 13291.93, -10769.20, 11113.24, -114.37, 0.00, 0.00, 0.00
60, 38304.54, 31175.83, 23316.24, -11426.12, 12217.11, -10652.15, 11230.41, 5.95, 0.10, 0.95, 0.27
61, 38217.68, 31151.31, 23521.54, -11607.01, 13035.16, -10799.49, 11053.16, -117.77, 0.00, 0.00, 0.00
62, 38143.99, 31107.82, 23543.70, -11744.19, 14206.86, -10927.63, 10907.81, -249.65, 0.00, 0.00, 0.00
63, 38238.25, 31141.52, 23357.55, -11561.84, 13534.45, -10778.55, 11075.02, -128.30, 0.00, 0.00, 0.00
64, 38322.87, 31188.26, 23318.77, -11401.42, 12279.98, -10626.60, 11226.57, 15.49, 0.00, 0.00, 0.00
65, 38246.00, 31166.11, 23506.26, -11553.42, 12788.24, -10750.79, 11075.69, -81.96, 0.00, 0.00, 0.00
66, 38139.70, 31104.82, 23570.18, -11740.37, 14124.13, -10917.64, 10888.74, -240.10, 0.00, 0.00, 0.00
67, 38193.48, 31112.08, 23383.57, -11621.50, 13802.42, -10824.99, 10999.52, -176.27, 0.00, 0.00, 0.00
68, 38301.55, 31167.00, 23285.78, -11421.52, 12439.28, -10649.13, 11192.66, -12.23, 0.00, 0.00, 0.00
69, 38267.53, 31175.99, 23459.16, -11508.06, 12584.61, -10712.23, 11105.73, -51.59, 0.00, 0.00, 0.00
70, 38150.09, 31117.79, 23574.50, -11719.26, 13983.88, -10899.22, 10891.07, -225.62, 0.10, 0.95, 0.27
71, 38178.52, 31112.04, 23427.40, -11654.27, 14023.15, -10859.39, 10943.86, -204.07, 0.00, 0.00, 0.00
72, 38291.82, 31159.76, 23289.80, -11439.58, 12649.66, -10673.43, 11148.67, -33.77, 0.00, 0.00, 0.00
73, 38278.10, 31173.60, 23424.98, -11475.74, 12435.04, -10690.71, 11110.36, -35.83, 0.00, 0.00, 0.00
74, 38155.81, 31117.96, 23571.66, -11705.70, 13806.76, -10886.84, 10882.68, -216.48, 0.00, 0.00, 0.00
75, 38144.79, 31088.79, 23441.48, -11707.96, 14200.87, -10901.26, 10878.21, -243.79, 0.00, 0.00, 0.00
76, 38258.32, 31134.95, 23266.22, -11487.81, 12900.93, -10712.32, 11093.13, -73.45, 0.00, 0.00, 0.00
77, 38286.44, 31174.96, 23364.97, -11462.62, 12340.13, -10672.49, 11120.17, -26.35, 0.00, 0.00, 0.00
78, 38167.12, 31125.50, 23544.07, -11693.78, 13591.89, -10863.91, 10894.37, -195.73, 0.00, 0.00, 0.00
79, 38128.41, 31086.02, 23464.48, -11749.95, 14322.01, -10919.97, 10835.21, -265.78, 0.00, 0.00, 0.00
80, 38246.67, 31137.52, 23279.27, -11526.39, 13190.86, -10732.08, 11048.22, -100.96, 0.11, 0.94, 0.27
81, 38305.97, 31191.32, 23327.55, -11436.58, 12323.39, -10642.83, 11134.83, -9.23, 0.00, 0.00, 0.00
82, 38204.11, 31155.83, 23519.80, -11634.40, 13353.36, -10805.91, 10936.26, -147.32, 0.00, 0.00, 0.00
83, 38128.30, 31098.83, 23482.70, -11749.66, 14359.18, -10920.08, 10807.67, -264.58, 0.00, 0.00, 0.00
84, 38215.13, 31120.02, 23266.29, -11568.30, 13462.75, -10777.12, 10976.43, -149.06, 0.00, 0.00, 0.00
85, 38302.80, 31179.39, 23264.54, -11425.52, 12328.95, -10642.47, 11114.16, -18.46, 0.00, 0.00, 0.00
86, 38221.01, 31157.84, 23469.29, -11597.34, 13072.78, -10775.80, 10946.30, -126.38, 0.00, 0.00, 0.00
87, 38140.32, 31112.02, 23500.27, -11750.42, 14294.90, -10915.74, 10791.18, -268.98, 0.00, 0.00, 0.00
88, 38217.46, 31134.06, 23312.02, -11597.07, 13715.37, -10797.21, 10932.62, -176.65, 0.00, 0.00, 0.00
89, 38310.08, 31183.45, 23255.71, -11425.00, 12414.81, -10643.70, 11095.14, -29.62, 0.00, 0.00, 0.00
90, 38245.31, 31172.08, 23434.37, -11562.13, 12821.23, -10751.57, 10957.90, -117.99, 0.11, 0.94, 0.27
91, 38136.19, 31111.91, 23513.79, -11759.12, 14171.09, -10927.90, 10763.04, -285.57, 0.00, 0.00, 0.00
92, 38182.41, 31116.76, 23342.39, -11656.14, 13931.53, -10850.18, 10863.75, -228.75, 0.00, 0.00, 0.00
93, 38283.17, 31164.84, 23230.68, -11461.57, 12556.47, -10676.56, 11053.74, -72.67, 0.00, 0.00, 0.00
94, 38257.11, 31173.55, 23389.67, -11532.52, 12600.06, -10720.61, 10985.48, -101.68, 0.00, 0.00, 0.00
95, 38148.44, 31126.37, 23519.29, -11743.63, 13989.46, -10896.25, 10777.54, -263.91, 0.00, 0.00, 0.00
96, 38151.14, 31102.92, 23362.00, -11717.32, 14117.65, -10886.13, 10801.52, -271.64, 0.00, 0.00, 0.00
97, 38262.14, 31149.84, 23207.95, -11503.73, 12749.03, -10701.93, 11010.92, -109.90, 0.00, 0.00, 0.00
98, 38261.13, 31170.11, 23335.24, -11523.37, 12440.22, -10702.62, 10991.02, -97.83, 0.00, 0.00, 0.00
99, 38155.07, 31127.28, 23505.56, -11740.10, 13757.92, -10889.14, 10770.50, -265.14, 0.11, 0.94, 0.27
100, 38139.88, 31099.46, 23397.16, -11752.14, 14226.80, -10918.00, 10751.55, -305.01, 0.00, 0.00, 0.00
101, 38263.17, 31156.83, 23232.02, -11518.59, 12960.99, -10720.10, 10976.11, -128.79, 0.00, 0.00, 0.00
102, 38290.50, 31189.20, 23319.08, -11479.54, 12318.02, -10670.34, 11011.41, -70.21, 0.00, 0.00, 0.00
103, 38175.68, 31139.73, 23504.78, -11697.70, 13503.11, -10851.55, 10795.87, -229.71, 0.00, 0.00, 0.00
104, 38122.98, 31093.94, 23441.03, -11775.68, 14302.84, -10930.23, 10713.84, -315.34, 0.00, 0.00, 0.00
105, 38227.56, 31130.12, 23248.47, -11572.19, 13231.70, -10760.58, 10910.74, -172.98, 0.00, 0.00, 0.00
106, 38296.65, 31188.26, 23298.94, -11464.81, 12284.09, -10652.19, 11019.59, -65.11, 0.00, 0.00, 0.00
107, 38196.58, 31153.48, 23506.12, -11665.49, 13232.99, -10812.97, 10824.59, -202.19, 0.00, 0.00, 0.00
108, 38113.63, 31092.04, 23492.22, -11804.56, 14293.16, -10946.74, 10683.04, -338.52, 0.00, 0.00, 0.00
109, 38193.27, 31108.96, 23287.88, -11631.22, 13481.03, -10809.53, 10847.14, -220.97, 0.11, 0.95, 0.27
110, 38278.68, 31162.87, 23278.94, -11480.46, 12299.56, -10670.34, 10992.99, -84.80, 0.00, 0.00, 0.00
111, 38210.95, 31147.45, 23487.30, -11630.93, 12936.05, -10788.23, 10840.19, -186.10, 0.00, 0.00, 0.00
112, 38111.64, 31085.13, 23526.73, -11804.76, 14192.58, -10947.37, 10666.54, -342.41, 0.00, 0.00, 0.00
113, 38172.09, 31095.57, 23330.73, -11669.78, 13702.71, -10840.53, 10797.90, -254.43, 0.00, 0.00, 0.00
114, 38284.34, 31159.94, 23276.81, -11479.83, 12379.02, -10665.78, 10980.61, -92.78, 0.00, 0.00, 0.00
115, 38234.36, 31150.96, 23467.32, -11604.51, 12693.82, -10757.72, 10862.37, -167.46, 0.00, 0.00, 0.00
116, 38137.28, 31094.65, 23561.24, -11816.54, 14058.82, -10941.69, 10654.23, -345.83, 0.00, 0.00, 0.00
117, 38174.88, 31098.45, 23387.30, -11740.30, 13931.19, -10889.03, 10723.56, -311.49, 0.00, 0.00, 0.00
118, 38270.81, 31153.77, 23286.29, -11511.84, 12558.75, -10687.11, 10946.21, -124.01, 0.00, 0.00, 0.00
119, 38222.38, 31142.82, 23428.79, -11580.19, 12525.87, -10727.92, 10879.80, -146.78, 0.10, 0.95, 0.26
120, 38105.61, 31080.84, 23552.01, -11798.97, 13904.44, -10918.65, 10661.31, -325.02, 0.00, 0.00, 0.00
121, 38114.98, 31066.06, 23428.09, -11761.67, 14123.17, -10897.91, 10690.97, -321.35, 0.00, 0.00, 0.00
122, 38222.11, 31113.31, 23282.20, -11545.44, 12786.29, -10713.24, 10894.98, -157.78, 0.00, 0.00, 0.00
123, 38221.01, 31128.07, 23398.45, -11550.42, 12383.92, -10702.75, 10887.22, -140.79, 0.00, 0.00, 0.00
124, 38100.07, 31071.65, 23556.46, -11774.92, 13671.60, -10893.95, 10663.64, -314.35, 0.00, 0.00, 0.00
125, 38068.39, 31035.46, 23446.38, -11813.48, 14231.33, -10943.57, 10620.50, -375.55, 0.00, 0.00, 0.00
126, 38196.63, 31091.46, 23286.67, -11577.06, 13004.33, -10742.16, 10853.87, -197.54, 0.00, 0.00, 0.00
127, 38231.94, 31123.04, 23363.67, -11528.83, 12281.46, -10683.60, 10907.14, -132.57, 0.00, 0.00, 0.00
128, 38133.15, 31087.61, 23546.31, -11737.53, 13408.54, -10856.22, 10705.35, -282.77, 0.00, 0.00, 0.00
129, 38081.71, 31047.96, 23504.76, -11822.08, 14278.05, -10941.65, 10622.73, -364.89, 0.11, 0.95, 0.26
130, 38175.97, 31077.10, 23321.61, -11630.44, 13273.65, -10782.84, 10808.34, -231.25, 0.00, 0.00, 0.00
131, 38239.50, 31123.24, 23338.89, -11523.17, 12258.37, -10677.63, 10906.00, -133.26, 0.00, 0.00, 0.00
132, 38154.45, 31099.17, 23529.97, -11700.45, 13113.57, -10822.83, 10724.97, -260.80, 0.00, 0.00, 0.00
133, 38078.36, 31050.55, 23524.99, -11832.32, 14215.46, -10942.94, 10586.95, -384.54, 0.00, 0.00, 0.00
134, 38158.47, 31072.23, 23326.57, -11666.45, 13486.33, -10812.12, 10741.49, -278.86, 0.00, 0.00, 0.00
135, 38248.71, 31126.44, 23299.93, -11509.81, 12267.75, -10671.08, 10894.53, -142.11, 0.00, 0.00, 0.00
136, 38174.90, 31107.10, 23488.78, -11660.48, 12829.32, -10788.38, 10748.91, -237.80, 0.00, 0.00, 0.00
137, 38073.36, 31046.59, 23535.67, -11841.60, 14119.64, -10950.99, 10569.20, -396.16, 0.00, 0.00, 0.00
138, 38135.05, 31058.62, 23349.59, -11714.17, 13726.27, -10855.82, 10689.36, -324.01, 0.00, 0.00, 0.00
139, 38249.60, 31123.82, 23278.31, -11516.87, 12394.33, -10676.11, 10886.28, -153.06, 0.11, 0.95, 0.25
140, 38196.18, 31113.02, 23444.03, -11631.56, 12626.48, -10757.58, 10773.56, -215.72, 0.00, 0.00, 0.00
141, 38086.86, 31056.61, 23531.38, -11835.56, 13990.09, -10931.99, 10568.78, -385.99, 0.00, 0.00, 0.00
142, 38123.94, 31058.13, 23365.24, -11765.44, 13943.67, -10885.50, 10631.00, -363.13, 0.00, 0.00, 0.00
143, 38241.69, 31118.14, 23243.78, -11551.60, 12584.05, -10703.74, 10838.32, -197.19, 0.00, 0.00, 0.00
144, 38238.54, 31146.98, 23392.73, -11583.63, 12453.12, -10715.85, 10807.05, -192.43, 0.00, 0.00, 0.00
145, 38123.83, 31095.21, 23520.38, -11804.76, 13817.78, -10905.46, 10586.34, -367.22, 0.00, 0.00, 0.00
146, 38114.15, 31068.66, 23375.34, -11799.13, 14133.48, -10915.00, 10583.86, -388.03, 0.00, 0.00, 0.00
147, 38221.57, 31111.32, 23205.38, -11580.93, 12829.92, -10731.16, 10797.12, -220.52, 0.00, 0.00, 0.00
148, 38236.61, 31139.82, 23308.69, -11564.50, 12344.67, -10703.62, 10812.12, -186.64, 0.00, 0.00, 0.00
149, 38128.81, 31096.30, 23472.53, -11781.42, 13584.99, -10884.18, 10597.57, -348.17, 0.10, 0.94, 0.27
150, 38088.09, 31053.17, 23365.48, -11835.94, 14216.49, -10944.80, 10540.48, -417.82, 0.00, 0.00, 0.00
