%OpenBCI Raw EEG Data
%
%Sample Rate = 250.0 Hz
%First Column = SampleIndex
%Other Columns = EEG data in microvolts followed by Accel Data (in G) interleaved with Aux Data
0, -187500.02, -187500.02, -52764.96, -187500.02, 187500.00, -187500.02, -187500.02, -187500.02, -0.01, 0.49, 0.09
1, -187500.02, -187500.02, -50626.50, -187500.02, 187500.00, -187500.02, -187500.02, -187500.02, 0.00, 0.00, 0.00
2, -187500.02, -187500.02, -49295.47, -187500.02, 187500.00, -187500.02, -187500.02, -187500.02, 0.00, 0.00, 0.00
3, -187500.02, -187500.02, -51469.79, -187500.02, 187500.00, -187500.02, -187500.02, -187500.02, 0.00, 0.00, 0.00
4, -187500.02, -187500.02, -52924.35, -187500.02, 187500.00, -187500.02, -187500.02, -187500.02, 0.00, 0.00, 0.00
5, -187500.02, -187500.02, -51150.38, -187500.02, 187500.00, -187500.02, -187500.02, -187500.02, 0.00, 0.00, 0.00
6, -187500.02, -187500.02, -49256.02, -187500.02, 187500.00, -187500.02, -187500.02, -187500.02, 0.00, 0.00, 0.00
7, -187500.02, -187500.02, -50980.35, -187500.02, 187500.00, -187500.02, -187500.02, -187500.02, -0.02, 0.97, 0.15
8, -187500.02, -187500.02, -52912.19, -187500.02, 187500.00, -187500.02, -187500.02, -187500.02, 0.00, 0.00, 0.00
9, -187500.02, -187500.02, -51631.34, -187500.02, 187500.00, -187500.02, -187500.02, -187500.02, 0.00, 0.00, 0.00
10, -187500.02, -187500.02, -49394.43, -187500.02, 187500.00, -187500.02, -187500.02, -187500.02, 0.00, 0.00, 0.00
11, -187500.02, -187500.02, -50533.09, -187500.02, 187500.00, -187500.02, -187500.02, -187500.02, 0.00, 0.00, 0.00
12, -187500.02, -187500.02, -52797.07, -187500.02, 187500.00, -187500.02, -187500.02, -187500.02, 0.00, 0.00, 0.00
13, -187500.02, -187500.02, -52071.76, -187500.02, 187500.00, -187500.02, -187500.02, -187500.02, 0.00, 0.00, 0.00
14, -187500.02, -187500.02, -49632.76, -187500.02, 187500.00, -187500.02, -187500.02, -187500.02, 0.00, 0.00, 0.00
15, -187500.02, -187500.02, -50115.61, -187500.02, 187500.00, -187500.02, -187500.02, -187500.02, 0.00, 0.00, 0.00
16, -187500.02, -187500.02, -52608.74, -187500.02, 187500.00, -187500.02, -187500.02, -187500.02, 0.00, 0.00, 0.00
17, -187500.02, -187500.02, -52476.57, -187500.02, 187500.00, -187500.02, -187500.02, -187500.02, -0.03, 0.97, 0.16
18, -187500.02, -187500.02, -50002.41, -187500.02, 187500.00, -187500.02, -187500.02, -187500.02, 0.00, 0.00, 0.00
19, -187500.02, -187500.02, -49761.46, -187500.02, 187500.00, -187500.02, -187500.02, -187500.02, 0.00, 0.00, 0.00
20, -187500.02, -187500.02, -52276.97, -187500.02, 187500.00, -187500.02, -187500.02, -187500.02, 0.00, 0.00, 0.00
21, -187500.02, -187500.02, -52729.84, -187500.02, 187500.00, -187500.02, -187500.02, -187500.02, 0.00, 0.00, 0.00
22, -187500.02, -187500.02, -50368.85, -187500.02, 187500.00, -187500.02, -187500.02, -187500.02, 0.00, 0.00, 0.00
23, -187500.02, -187500.02, -49506.59, -187500.02, 187500.00, -187500.02, -187500.02, -187500.02, 0.00, 0.00, 0.00
24, -187500.02, -187500.02, -51872.12, -187500.02, 187500.00, -187500.02, -187500.02, -187500.02, 0.00, 0.00, 0.00
25, -187500.02, -187500.02, -52909.95, -187500.02, 187500.00, -187500.02, -187500.02, -187500.02, 0.00, 0.00, 0.00
26, -187500.02, -187500.02, -50856.74, -187500.02, 187500.00, -187500.02, -187500.02, -187500.02, -0.04, 0.97, 0.16
27, -187500.02, -187500.02, -49329.18, -187500.02, 187500.00, -187500.02, -187500.02, -187500.02, 0.00, 0.00, 0.00
28, -187500.02, -187500.02, -51406.55, -187500.02, 187500.00, -187500.02, -187500.02, -187500.02, 0.00, 0.00, 0.00
29, -187500.02, -187500.02, -52976.02, -187500.02, 187500.00, -187500.02, -187500.02, -187500.02, 0.00, 0.00, 0.00
30, -187500.02, -187500.02, -51313.43, -187500.02, 187500.00, -187500.02, -187500.02, -187500.02, 0.00, 0.00, 0.00
31, -187500.02, -187500.02, -49329.98, -187500.02, 187500.00, -187500.02, -187500.02, -187500.02, 0.00, 0.00, 0.00
32, -187500.02, -187500.02, -50930.04, -187500.02, 187500.00, -187500.02, -187500.02, -187500.02, 0.00, 0.00, 0.00
33, -187500.02, -187500.02, -52990.17, -187500.02, 187500.00, -187500.02, -187500.02, -187500.02, 0.00, 0.00, 0.00
34, -187500.02, -187500.02, -51833.05, -187500.02, 187500.00, -187500.02, -187500.02, -187500.02, 0.00, 0.00, 0.00
35, -187500.02, -187500.02, -49485.51, -187500.02, 187500.00, -187500.02, -187500.02, -187500.02, 0.00, 0.00, 0.00
36, -187500.02, -187500.02, -50461.05, -187500.02, 187500.00, -187500.02, -187500.02, -187500.02, -0.04, 0.98, 0.16
37, -187500.02, -187500.02, -52840.44, -187500.02, 187500.00, -187500.02, -187500.02, -187500.02, 0.00, 0.00, 0.00
38, -187500.02, -187500.02, -52256.03, -187500.02, 187500.00, -187500.02, -187500.02, -187500.02, 0.00, 0.00, 0.00
39, -187500.02, -187500.02, -49761.98, -187500.02, 187500.00, -187500.02, -187500.02, -187500.02, 0.00, 0.00, 0.00
40, -187500.02, -187500.02, -50068.96, -187500.02, 187500.00, -187500.02, -187500.02, -187500.02, 0.00, 0.00, 0.00
41, -187500.02, -187500.02, -52623.74, -187500.02, 187500.00, -187500.02, -187500.02, -187500.02, 0.00, 0.00, 0.00
42, -187500.02, -187500.02, -52658.94, -187500.02, 187500.00, -187500.02, -187500.02, -187500.02, 0.00, 0.00, 0.00
43, -187500.02, -187500.02, -50161.16, -187500.02, 187500.00, -187500.02, -187500.02, -187500.02, 0.00, 0.00, 0.00
44, -187500.02, -187500.02, -49724.67, -187500.02, 187500.00, -187500.02, -187500.02, -187500.02, 0.00, 0.00, 0.00
45, -187500.02, -187500.02, -52248.88, -187500.02, 187500.00, -187500.02, -187500.02, -187500.02, 0.00, 0.00, 0.00
46, -187500.02, -187500.02, -52894.51, -187500.02, 187500.00, -187500.02, -187500.02, -187500.02, -0.04, 0.97, 0.16
47, -187500.02, -187500.02, -50583.09, -187500.02, 187500.00, -187500.02, -187500.02, -187500.02, 0.00, 0.00, 0.00
48, -187500.02, -187500.02, -49504.33, -187500.02, 187500.00, -187500.02, -187500.02, -187500.02, 0.00, 0.00, 0.00
49, -187500.02, -187500.02, -51854.05, -187500.02, 187500.00, -187500.02, -187500.02, -187500.02, 0.00, 0.00, 0.00
50, -187500.02, -187500.02, -53097.17, -187500.02, 187500.00, -187500.02, -187500.02, -187500.02, 0.00, 0.00, 0.00
51, -187500.02, -187500.02, -51110.48, -187500.02, 187500.00, -187500.02, -187500.02, -187500.02, 0.00, 0.00, 0.00
52, -187500.02, -187500.02, -49453.10, -187500.02, 187500.00, -187500.02, -187500.02, -187500.02, 0.00, 0.00, 0.00
53, -187500.02, -187500.02, -51440.68, -187500.02, 187500.00, -187500.02, -187500.02, -187500.02, 0.00, 0.00, 0.00
54, -187500.02, -187500.02, -53175.11, -187500.02, 187500.00, -187500.02, -187500.02, -187500.02, 0.00, 0.00, 0.00
55, -187500.02, -187500.02, -51603.58, -187500.02, 187500.00, -187500.02, -187500.02, -187500.02, 0.00, 0.00, 0.00
56, -187500.02, -187500.02, -49489.38, -187500.02, 187500.00, -187500.02, -187500.02, -187500.02, -0.03, 0.97, 0.17
57, -187500.02, -187500.02, -50945.79, -187500.02, 187500.00, -187500.02, -187500.02, -187500.02, 0.00, 0.00, 0.00
58, -187500.02, -187500.02, -53119.86, -187500.02, 187500.00, -187500.02, -187500.02, -187500.02, 0.00, 0.00, 0.00
59, -187500.02, -187500.02, -52105.91, -187500.02, 187500.00, -187500.02, -187500.02, -187500.02, 0.00, 0.00, 0.00
60, -187500.02, -187500.02, -49675.61, -187500.02, 187500.00, -187500.02, -187500.02, -187500.02, 0.00, 0.00, 0.00
61, -187500.02, -187500.02, -50488.16, -187500.02, 187500.00, -187500.02, -187500.02, -187500.02, 0.00, 0.00, 0.00
62, -187500.02, -187500.02, -52938.45, -187500.02, 187500.00, -187500.02, -187500.02, -187500.02, 0.00, 0.00, 0.00
63, -187500.02, -187500.02, -52521.84, -187500.02, 187500.00, -187500.02, -187500.02, -187500.02, 0.00, 0.00, 0.00
64, -187500.02, -187500.02, -49974.95, -187500.02, 187500.00, -187500.02, -187500.02, -187500.02, 0.00, 0.00, 0.00
65, -187500.02, -187500.02, -50046.02, -187500.02, 187500.00, -187500.02, -187500.02, -187500.02, 0.00, 0.00, 0.00
66, -187500.02, -187500.02, -52630.89, -187500.02, 187500.00, -187500.02, -187500.02, -187500.02, -0.03, 0.97, 0.17
67, -187500.02, -187500.02, -52834.18, -187500.02, 187500.00, -187500.02, -187500.02, -187500.02, 0.00, 0.00, 0.00
68, -187500.02, -187500.02, -50401.73, -187500.02, 187500.00, -187500.02, -187500.02, -187500.02, 0.00, 0.00, 0.00
69, -187500.02, -187500.02, -49762.20, -187500.02, 187500.00, -187500.02, -187500.02, -187500.02, 0.00, 0.00, 0.00
70, -187500.02, -187500.02, -52268.26, -187500.02, 187500.00, -187500.02, -187500.02, -187500.02, 0.00, 0.00, 0.00
71, -187500.02, -187500.02, -53095.81, -187500.02, 187500.00, -187500.02, -187500.02, -187500.02, 0.00, 0.00, 0.00
72, -187500.02, -187500.02, -50857.19, -187500.02, 187500.00, -187500.02, -187500.02, -187500.02, 0.00, 0.00, 0.00
73, -187500.02, -187500.02, -49600.29, -187500.02, 187500.00, -187500.02, -187500.02, -187500.02, 0.00, 0.00, 0.00
74, -187500.02, -187500.02, -51863.29, -187500.02, 187500.00, -187500.02, -187500.02, -187500.02, 0.00, 0.00, 0.00
75, -187500.02, -187500.02, -53233.76, -187500.02, 187500.00, -187500.02, -187500.02, -187500.02, 0.00, 0.00, 0.00
76, -187500.02, -187500.02, -51355.95, -187500.02, 187500.00, -187500.02, -187500.02, -187500.02, -0.04, 0.98, 0.17
77, -187500.02, -187500.02, -49552.74, -187500.02, 187500.00, -187500.02, -187500.02, -187500.02, 0.00, 0.00, 0.00
78, -187500.02, -187500.02, -51390.68, -187500.02, 187500.00, -187500.02, -187500.02, -187500.02, 0.00, 0.00, 0.00
79, -187500.02, -187500.02, -53270.29, -187500.02, 187500.00, -187500.02, -187500.02, -187500.02, 0.00, 0.00, 0.00
80, -187500.02, -187500.02, -51872.68, -187500.02, 187500.00, -187500.02, -187500.02, -187500.02, 0.00, 0.00, 0.00
81, -187500.02, -187500.02, -49633.25, -187500.02, 187500.00, -187500.02, -187500.02, -187500.02, 0.00, 0.00, 0.00
82, -187500.02, -187500.02, -50908.31, -187500.02, 187500.00, -187500.02, -187500.02, -187500.02, 0.00, 0.00, 0.00
83, -187500.02, -187500.02, -53191.74, -187500.02, 187500.00, -187500.02, -187500.02, -187500.02, 0.00, 0.00, 0.00
84, -187500.02, -187500.02, -52322.75, -187500.02, 187500.00, -187500.02, -187500.02, -187500.02, 0.00, 0.00, 0.00
85, -187500.02, -187500.02, -49870.34, -187500.02, 187500.00, -187500.02, -187500.02, -187500.02, 0.00, 0.00, 0.00
86, -187500.02, -187500.02, -50477.48, -187500.02, 187500.00, -187500.02, -187500.02, -187500.02, -0.04, 0.97, 0.17
87, -187500.02, -187500.02, -52980.05, -187500.02, 187500.00, -187500.02, -187500.02, -187500.02, 0.00, 0.00, 0.00
88, -187500.02, -187500.02, -52727.61, -187500.02, 187500.00, -187500.02, -187500.02, -187500.02, 0.00, 0.00, 0.00
89, -187500.02, -187500.02, -50202.80, -187500.02, 187500.00, -187500.02, -187500.02, -187500.02, 0.00, 0.00, 0.00
90, -187500.02, -187500.02, -50112.05, -187500.02, 187500.00, -187500.02, -187500.02, -187500.02, 0.00, 0.00, 0.00
91, -187500.02, -187500.02, -52680.78, -187500.02, 187500.00, -187500.02, -187500.02, -187500.02, 0.00, 0.00, 0.00
92, -187500.02, -187500.02, -53042.23, -187500.02, 187500.00, -187500.02, -187500.02, -187500.02, 0.00, 0.00, 0.00
93, -187500.02, -187500.02, -50624.11, -187500.02, 187500.00, -187500.02, -187500.02, -187500.02, 0.00, 0.00, 0.00
94, -187500.02, -187500.02, -49840.36, -187500.02, 187500.00, -187500.02, -187500.02, -187500.02, 0.00, 0.00, 0.00
95, -187500.02, -187500.02, -52302.77, -187500.02, 187500.00, -187500.02, -187500.02, -187500.02, 0.00, 0.00, 0.00
96, -187500.02, -187500.02, -53266.04, -187500.02, 187500.00, -187500.02, -187500.02, -187500.02, -0.03, 0.97, 0.16
97, -187500.02, -187500.02, -51115.09, -187500.02, 187500.00, -187500.02, -187500.02, -187500.02, 0.00, 0.00, 0.00
98, -187500.02, -187500.02, -49698.52, -187500.02, 187500.00, -187500.02, -187500.02, -187500.02, 0.00, 0.00, 0.00
99, -187500.02, -187500.02, -51856.29, -187500.02, 187500.00, -187500.02, -187500.02, -187500.02, 0.00, 0.00, 0.00
100, -187500.02, -187500.02, -53400.42, -187500.02, 187500.00, -187500.02, -187500.02, -187500.02, 0.00, 0.00, 0.00
101, -187500.02, -187500.02, -51626.80, -187500.02, 187500.00, -187500.02, -187500.02, -187500.02, 0.00, 0.00, 0.00
102, -187500.02, -187500.02, -49677.82, -187500.02, 187500.00, -187500.02, -187500.02, -187500.02, 0.00, 0.00, 0.00
103, -187500.02, -187500.02, -51378.77, -187500.02, 187500.00, -187500.02, -187500.02, -187500.02, 0.00, 0.00, 0.00
104, -187500.02, -187500.02, -53383.61, -187500.02, 187500.00, -187500.02, -187500.02, -187500.02, 0.00, 0.00, 0.00
105, -187500.02, -187500.02, -52116.93, -187500.02, 187500.00, -187500.02, -187500.02, -187500.02, 0.00, 0.00, 0.00
106, -187500.02, -187500.02, -49818.77, -187500.02, 187500.00, -187500.02, -187500.02, -187500.02, -0.04, 0.97, 0.16
107, -187500.02, -187500.02, -50914.30, -187500.02, 187500.00, -187500.02, -187500.02, -187500.02, 0.00, 0.00, 0.00
108, -187500.02, -187500.02, -53251.40, -187500.02, 187500.00, -187500.02, -187500.02, -187500.02, 0.00, 0.00, 0.00
109, -187500.02, -187500.02, -52550.58, -187500.02, 187500.00, -187500.02, -187500.02, -187500.02, 0.00, 0.00, 0.00
110, -187500.02, -187500.02, -50043.57, -187500.02, 187500.00, -187500.02, -187500.02, -187500.02, 0.00, 0.00, 0.00
111, -187500.02, -187500.02, -50467.53, -187500.02, 187500.00, -187500.02, -187500.02, -187500.02, 0.00, 0.00, 0.00
112, -187500.02, -187500.02, -53017.93, -187500.02, 187500.00, -187500.02, -187500.02, -187500.02, 0.00, 0.00, 0.00
113, -187500.02, -187500.02, -52927.32, -187500.02, 187500.00, -187500.02, -187500.02, -187500.02, 0.00, 0.00, 0.00
114, -187500.02, -187500.02, -50421.53, -187500.02, 187500.00, -187500.02, -187500.02, -187500.02, 0.00, 0.00, 0.00
115, -187500.02, -187500.02, -50113.23, -187500.02, 187500.00, -187500.02, -187500.02, -187500.02, -0.03, 0.98, 0.17
116, -187500.02, -187500.02, -52667.86, -187500.02, 187500.00, -187500.02, -187500.02, -187500.02, 0.00, 0.00, 0.00
117, -187500.02, -187500.02, -53195.52, -187500.02, 187500.00, -187500.02, -187500.02, -187500.02, 0.00, 0.00, 0.00
118, -187500.02, -187500.02, -50835.66, -187500.02, 187500.00, -187500.02, -187500.02, -187500.02, 0.00, 0.00, 0.00
119, -187500.02, -187500.02, -49857.84, -187500.02, 187500.00, -187500.02, -187500.02, -187500.02, 0.00, 0.00, 0.00
120, -187500.02, -187500.02, -52243.51, -187500.02, 187500.00, -187500.02, -187500.02, -187500.02, 0.00, 0.00, 0.00
121, -187500.02, -187500.02, -53370.80, -187500.02, 187500.00, -187500.02, -187500.02, -187500.02, 0.00, 0.00, 0.00
122, -187500.02, -187500.02, -51306.98, -187500.02, 187500.00, -187500.02, -187500.02, -187500.02, 0.00, 0.00, 0.00
123, -187500.02, -187500.02, -49749.75, -187500.02, 187500.00, -187500.02, -187500.02, -187500.02, 0.00, 0.00, 0.00
124, -187500.02, -187500.02, -51778.57, -187500.02, 187500.00, -187500.02, -187500.02, -187500.02, 0.00, 0.00, 0.00
125, -187500.02, -187500.02, -53399.97, -187500.02, 187500.00, -187500.02, -187500.02, -187500.02, -0.03, 0.97, 0.17
126, -187500.02, -187500.02, -51784.05, -187500.02, 187500.00, -187500.02, -187500.02, -187500.02, 0.00, 0.00, 0.00
127, -187500.02, -187500.02, -49757.37, -187500.02, 187500.00, -187500.02, -187500.02, -187500.02, 0.00, 0.00, 0.00
128, -187500.02, -187500.02, -51306.39, -187500.02, 187500.00, -187500.02, -187500.02, -187500.02, 0.00, 0.00, 0.00
129, -187500.02, -187500.02, -53364.54, -187500.02, 187500.00, -187500.02, -187500.02, -187500.02, 0.00, 0.00, 0.00
130, -187500.02, -187500.02, -52272.59, -187500.02, 187500.00, -187500.02, -187500.02, -187500.02, 0.00, 0.00, 0.00
131, -187500.02, -187500.02, -49964.48, -187500.02, 187500.00, -187500.02, -187500.02, -187500.02, 0.00, 0.00, 0.00
132, -187500.02, -187500.02, -50901.65, -187500.02, 187500.00, -187500.02, -187500.02, -187500.02, 0.00, 0.00, 0.00
133, -187500.02, -187500.02, -53279.89, -187500.02, 187500.00, -187500.02, -187500.02, -187500.02, 0.00, 0.00, 0.00
134, -187500.02, -187500.02, -52715.11, -187500.02, 187500.00, -187500.02, -187500.02, -187500.02, 0.00, 0.00, 0.00
135, -187500.02, -187500.02, -50240.08, -187500.02, 187500.00, -187500.02, -187500.02, -187500.02, -0.03, 0.97, 0.17
136, -187500.02, -187500.02, -50512.95, -187500.02, 187500.00, -187500.02, -187500.02, -187500.02, 0.00, 0.00, 0.00
137, -187500.02, -187500.02, -53052.45, -187500.02, 187500.00, -187500.02, -187500.02, -187500.02, 0.00, 0.00, 0.00
138, -187500.02, -187500.02, -53115.59, -187500.02, 187500.00, -187500.02, -187500.02, -187500.02, 0.00, 0.00, 0.00
139, -187500.02, -187500.02, -50642.39, -187500.02, 187500.00, -187500.02, -187500.02, -187500.02, 0.00, 0.00, 0.00
140, -187500.02, -187500.02, -50183.82, -187500.02, 187500.00, -187500.02, -187500.02, -187500.02, 0.00, 0.00, 0.00
141, -187500.02, -187500.02, -52703.45, -187500.02, 187500.00, -187500.02, -187500.02, -187500.02, 0.00, 0.00, 0.00
142, -187500.02, -187500.02, -53388.39, -187500.02, 187500.00, -187500.02, -187500.02, -187500.02, 0.00, 0.00, 0.00
143, -187500.02, -187500.02, -51125.50, -187500.02, 187500.00, -187500.02, -187500.02, -187500.02, 0.00, 0.00, 0.00
144, -187500.02, -187500.02, -49996.85, -187500.02, 187500.00, -187500.02, -187500.02, -187500.02, 0.00, 0.00, 0.00
145, -187500.02, -187500.02, -52291.93, -187500.02, 187500.00, -187500.02, -187500.02, -187500.02, -0.04, 0.98, 0.17
146, -187500.02, -187500.02, -53548.43, -187500.02, 187500.00, -187500.02, -187500.02, -187500.02, 0.00, 0.00, 0.00
147, -187500.02, -187500.02, -51616.14, -187500.02, 187500.00, -187500.02, -187500.02, -187500.02, 0.00, 0.00, 0.00
148, -187500.02, -187500.02, -49923.65, -187500.02, 187500.00, -187500.02, -187500.02, -187500.02, 0.00, 0.00, 0.00
149, -187500.02, -187500.02, -51839.15, -187500.02, 187500.00, -187500.02, -187500.02, -187500.02, 0.00, 0.00, 0.00
150, -187500.02, -187500.02, -53588.06, -187500.02, 187500.00, -187500.02, -187500.02, -187500.02, 0.00, 0.00, 0.00
151, -187500.02, -187500.02, -52097.29, -187500.02, 187500.00, -187500.02, -187500.02, -187500.02, 0.00, 0.00, 0.00
152, -187500.02, -187500.02, -49969.31, -187500.02, 187500.00, -187500.02, -187500.02, -187500.02, 0.00, 0.00, 0.00
153, -187500.02, -187500.02, -51357.02, -187500.02, 187500.00, -187500.02, -187500.02, -187500.02, 0.00, 0.00, 0.00
154, -187500.02, -187500.02, -53512.91, -187500.02, 187500.00, -187500.02, -187500.02, -187500.02, 0.00, 0.00, 0.00
155, -187500.02, -187500.02, -52546.13, -187500.02, 187500.00, -187500.02, -187500.02, -187500.02, -0.03, 0.97, 0.17
156, -187500.02, -187500.02, -50154.56, -187500.02, 187500.00, -187500.02, -187500.02, -187500.02, 0.00, 0.00, 0.00
157, -187500.02, -187500.02, -50883.70, -187500.02, 187500.00, -187500.02, -187500.02, -187500.02, 0.00, 0.00, 0.00
158, -187500.02, -187500.02, -53316.55, -187500.02, 187500.00, -187500.02, -187500.02, -187500.02, 0.00, 0.00, 0.00
159, -187500.02, -187500.02, -52933.54, -187500.02, 187500.00, -187500.02, -187500.02, -187500.02, 0.00, 0.00, 0.00
160, -187500.02, -187500.02, -50420.55, -187500.02, 187500.00, -187500.02, -187500.02, -187500.02, 0.00, 0.00, 0.00
161, -187500.02, -187500.02, -50466.71, -187500.02, 187500.00, -187500.02, -187500.02, -187500.02, 0.00, 0.00, 0.00
162, -187500.02, -187500.02, -53008.64, -187500.02, 187500.00, -187500.02, -187500.02, -187500.02, 0.00, 0.00, 0.00
163, -187500.02, -187500.02, -53239.95, -187500.02, 187500.00, -187500.02, -187500.02, -187500.02, 0.00, 0.00, 0.00
164, -187500.02, -187500.02, -50822.03, -187500.02, 187500.00, -187500.02, -187500.02, -187500.02, 0.00, 0.00, 0.00
165, -187500.02, -187500.02, -50166.88, -187500.02, 187500.00, -187500.02, -187500.02, -187500.02, -0.03, 0.99, 0.17
166, -187500.02, -187500.02, -52619.16, -187500.02, 187500.00, -187500.02, -187500.02, -187500.02, 0.00, 0.00, 0.00
167, -187500.02, -187500.02, -53440.54, -187500.02, 187500.00, -187500.02, -187500.02, -187500.02, 0.00, 0.00, 0.00
168, -187500.02, -187500.02, -51241.95, -187500.02, 187500.00, -187500.02, -187500.02, -187500.02, 0.00, 0.00, 0.00
169, -187500.02, -187500.02, -49962.94, -187500.02, 187500.00, -187500.02, -187500.02, -187500.02, 0.00, 0.00, 0.00
170, -187500.02, -187500.02, -52147.94, -187500.02, 187500.00, -187500.02, -187500.02, -187500.02, 0.00, 0.00, 0.00
171, -187500.02, -187500.02, -53551.25, -187500.02, 187500.00, -187500.02, -187500.02, -187500.02, 0.00, 0.00, 0.00
172, -187500.02, -187500.02, -51710.18, -187500.02, 187500.00, -187500.02, -187500.02, -187500.02, 0.00, 0.00, 0.00
173, -187500.02, -187500.02, -49893.25, -187500.02, 187500.00, -187500.02, -187500.02, -187500.02, 0.00, 0.00, 0.00
174, -187500.02, -187500.02, -51674.41, -187500.02, 187500.00, -187500.02, -187500.02, -187500.02, 0.00, 0.00, 0.00
175, -187500.02, -187500.02, -53565.33, -187500.02, 187500.00, -187500.02, -187500.02, -187500.02, -0.03, 0.97, 0.17
176, -187500.02, -187500.02, -52212.24, -187500.02, 187500.00, -187500.02, -187500.02, -187500.02, 0.00, 0.00, 0.00
177, -187500.02, -187500.02, -49990.25, -187500.02, 187500.00, -187500.02, -187500.02, -187500.02, 0.00, 0.00, 0.00
178, -187500.02, -187500.02, -51216.05, -187500.02, 187500.00, -187500.02, -187500.02, -187500.02, 0.00, 0.00, 0.00
179, -187500.02, -187500.02, -53471.68, -187500.02, 187500.00, -187500.02, -187500.02, -187500.02, 0.00, 0.00, 0.00
180, -187500.02, -187500.02, -52681.07, -187500.02, 187500.00, -187500.02, -187500.02, -187500.02, 0.00, 0.00, 0.00
181, -187500.02, -187500.02, -50259.86, -187500.02, 187500.00, -187500.02, -187500.02, -187500.02, 0.00, 0.00, 0.00
182, -187500.02, -187500.02, -50807.50, -187500.02, 187500.00, -187500.02, -187500.02, -187500.02, 0.00, 0.00, 0.00
183, -187500.02, -187500.02, -53277.95, -187500.02, 187500.00, -187500.02, -187500.02, -187500.02, 0.00, 0.00, 0.00
184, -187500.02, -187500.02, -53053.20, -187500.02, 187500.00, -187500.02, -187500.02, -187500.02, 0.00, 0.00, 0.00
185, -187500.02, -187500.02, -50568.88, -187500.02, 187500.00, -187500.02, -187500.02, -187500.02, -0.03, 0.97, 0.18
186, -187500.02, -187500.02, -50439.26, -187500.02, 187500.00, -187500.02, -187500.02, -187500.02, 0.00, 0.00, 0.00
187, -187500.02, -187500.02, -52999.80, -187500.02, 187500.00, -187500.02, -187500.02, -187500.02, 0.00, 0.00, 0.00
188, -187500.02, -187500.02, -53430.41, -187500.02, 187500.00, -187500.02, -187500.02, -187500.02, 0.00, 0.00, 0.00
189, -187500.02, -187500.02, -51069.09, -187500.02, 187500.00, -187500.02, -187500.02, -187500.02, 0.00, 0.00, 0.00
190, -187500.02, -187500.02, -50241.36, -187500.02, 187500.00, -187500.02, -187500.02, -187500.02, 0.00, 0.00, 0.00
191, -187500.02, -187500.02, -52641.84, -187500.02, 187500.00, -187500.02, -187500.02, -187500.02, 0.00, 0.00, 0.00
192, -187500.02, -187500.02, -53650.64, -187500.02, 187500.00, -187500.02, -187500.02, -187500.02, 0.00, 0.00, 0.00
193, -187500.02, -187500.02, -51536.01, -187500.02, 187500.00, -187500.02, -187500.02, -187500.02, 0.00, 0.00, 0.00
194, -187500.02, -187500.02, -50093.25, -187500.02, 187500.00, -187500.02, -187500.02, -187500.02, 0.00, 0.00, 0.00
195, -187500.02, -187500.02, -52194.88, -187500.02, 187500.00, -187500.02, -187500.02, -187500.02, -0.03, 0.97, 0.17
196, -187500.02, -187500.02, -53713.48, -187500.02, 187500.00, -187500.02, -187500.02, -187500.02, 0.00, 0.00, 0.00
197, -187500.02, -187500.02, -52014.07, -187500.02, 187500.00, -187500.02, -187500.02, -187500.02, 0.00, 0.00, 0.00
198, -187500.02, -187500.02, -50091.71, -187500.02, 187500.00, -187500.02, -187500.02, -187500.02, 0.00, 0.00, 0.00
199, -187500.02, -187500.02, -51769.28, -187500.02, 187500.00, -187500.02, -187500.02, -187500.02, 0.00, 0.00, 0.00
200, -187500.02, -187500.02, -53767.23, -187500.02, 187500.00, -187500.02, -187500.02, -187500.02, 0.00, 0.00, 0.00
201, -187500.02, -187500.02, -52538.76, -187500.02, 187500.00, -187500.02, -187500.02, -187500.02, 0.00, 0.00, 0.00
202, -187500.02, -187500.02, -50273.52, -187500.02, 187500.00, -187500.02, -187500.02, -187500.02, 0.00, 0.00, 0.00
203, -187500.02, -187500.02, -51341.91, -187500.02, 187500.00, -187500.02, -187500.02, -187500.02, 0.00, 0.00, 0.00
204, -187500.02, -187500.02, -53672.59, -187500.02, 187500.00, -187500.02, -187500.02, -187500.02, -0.03, 0.98, 0.17
205, -187500.02, -187500.02, -53030.90, -187500.02, 187500.00, -187500.02, -187500.02, -187500.02, 0.00, 0.00, 0.00
206, -187500.02, -187500.02, -50581.79, -187500.02, 187500.00, -187500.02, -187500.02, -187500.02, 0.00, 0.00, 0.00
207, -187500.02, -187500.02, -50928.45, -187500.02, 187500.00, -187500.02, -187500.02, -187500.02, 0.00, 0.00, 0.00
208, -187500.02, -187500.02, -53423.55, -187500.02, 187500.00, -187500.02, -187500.02, -187500.02, 0.00, 0.00, 0.00
209, -187500.02, -187500.02, -53392.84, -187500.02, 187500.00, -187500.02, -187500.02, -187500.02, 0.00, 0.00, 0.00
210, -187500.02, -187500.02, -50930.64, -187500.02, 187500.00, -187500.02, -187500.02, -187500.02, 0.00, 0.00, 0.00
211, -187500.02, -187500.02, -50590.73, -187500.02, 187500.00, -187500.02, -187500.02, -187500.02, 0.00, 0.00, 0.00
212, -187500.02, -187500.02, -53110.49, -187500.02, 187500.00, -187500.02, -187500.02, -187500.02, 0.00, 0.00, 0.00
213, -187500.02, -187500.02, -53671.12, -187500.02, 187500.00, -187500.02, -187500.02, -187500.02, 0.00, 0.00, 0.00
214, -187500.02, -187500.02, -51377.70, -187500.02, 187500.00, -187500.02, -187500.02, -187500.02, -0.03, 0.98, 0.17
215, -187500.02, -187500.02, -50371.64, -187500.02, 187500.00, -187500.02, -187500.02, -187500.02, 0.00, 0.00, 0.00
216, -187500.02, -187500.02, -52697.68, -187500.02, 187500.00, -187500.02, -187500.02, -187500.02, 0.00, 0.00, 0.00
217, -187500.02, -187500.02, -53808.89, -187500.02, 187500.00, -187500.02, -187500.02, -187500.02, 0.00, 0.00, 0.00
218, -187500.02, -187500.02, -51822.65, -187500.02, 187500.00, -187500.02, -187500.02, -187500.02, 0.00, 0.00, 0.00
219, -187500.02, -187500.02, -50257.02, -187500.02, 187500.00, -187500.02, -187500.02, -187500.02, 0.00, 0.00, 0.00
220, -187500.02, -187500.02, -52263.92, -187500.02, 187500.00, -187500.02, -187500.02, -187500.02, 0.00, 0.00, 0.00
221, -187500.02, -187500.02, -53921.57, -187500.02, 187500.00, -187500.02, -187500.02, -187500.02, 0.00, 0.00, 0.00
222, -187500.02, -187500.02, -52333.01, -187500.02, 187500.00, -187500.02, -187500.02, -187500.02, 0.00, 0.00, 0.00
223, -187500.02, -187500.02, -50273.92, -187500.02, 187500.00, -187500.02, -187500.02, -187500.02, 0.00, 0.00, 0.00
224, -187500.02, -187500.02, -51732.95, -187500.02, 187500.00, -187500.02, -187500.02, -187500.02, -0.03, 0.97, 0.17
225, -187500.02, -187500.02, -53822.64, -187500.02, 187500.00, -187500.02, -187500.02, -187500.02, 0.00, 0.00, 0.00
226, -187500.02, -187500.02, -52777.32, -187500.02, 187500.00, -187500.02, -187500.02, -187500.02, 0.00, 0.00, 0.00
227, -187500.02, -187500.02, -50417.55, -187500.02, 187500.00, -187500.02, -187500.02, -187500.02, 0.00, 0.00, 0.00
228, -187500.02, -187500.02, -51258.16, -187500.02, 187500.00, -187500.02, -187500.02, -187500.02, 0.00, 0.00, 0.00
229, -187500.02, -187500.02, -53624.63, -187500.02, 187500.00, -187500.02, -187500.02, -187500.02, 0.00, 0.00, 0.00
230, -187500.02, -187500.02, -53138.54, -187500.02, 187500.00, -187500.02, -187500.02, -187500.02, 0.00, 0.00, 0.00
231, -187500.02, -187500.02, -50702.54, -187500.02, 187500.00, -187500.02, -187500.02, -187500.02, 0.00, 0.00, 0.00
232, -187500.02, -187500.02, -50913.41, -187500.02, 187500.00, -187500.02, -187500.02, -187500.02, 0.00, 0.00, 0.00
233, -187500.02, -187500.02, -53445.39, -187500.02, 187500.00, -187500.02, -187500.02, -187500.02, 0.00, 0.00, 0.00
234, -187500.02, -187500.02, -53537.32, -187500.02, 187500.00, -187500.02, -187500.02, -187500.02, -0.03, 0.98, 0.16
235, -187500.02, -187500.02, -51057.84, -187500.02, 187500.00, -187500.02, -187500.02, -187500.02, 0.00, 0.00, 0.00
236, -187500.02, -187500.02, -50541.52, -187500.02, 187500.00, -187500.02, -187500.02, -187500.02, 0.00, 0.00, 0.00
237, -187500.02, -187500.02, -53038.95, -187500.02, 187500.00, -187500.02, -187500.02, -187500.02, 0.00, 0.00, 0.00
238, -187500.02, -187500.02, -53750.40, -187500.02, 187500.00, -187500.02, -187500.02, -187500.02, 0.00, 0.00, 0.00
239, -187500.02, -187500.02, -51503.27, -187500.02, 187500.00, -187500.02, -187500.02, -187500.02, 0.00, 0.00, 0.00
240, -187500.02, -187500.02, -50345.67, -187500.02, 187500.00, -187500.02, -187500.02, -187500.02, 0.00, 0.00, 0.00
241, -187500.02, -187500.02, -52610.06, -187500.02, 187500.00, -187500.02, -187500.02, -187500.02, 0.00, 0.00, 0.00
242, -187500.02, -187500.02, -53902.59, -187500.02, 187500.00, -187500.02, -187500.02, -187500.02, 0.00, 0.00, 0.00
243, -187500.02, -187500.02, -52001.98, -187500.02, 187500.00, -187500.02, -187500.02, -187500.02, 0.00, 0.00, 0.00
244, -187500.02, -187500.02, -50280.27, -187500.02, 187500.00, -187500.02, -187500.02, -187500.02, -0.03, 0.99, 0.16
245, -187500.02, -187500.02, -52141.99, -187500.02, 187500.00, -187500.02, -187500.02, -187500.02, 0.00, 0.00, 0.00
246, -187500.02, -187500.02, -53934.40, -187500.02, 187500.00, -187500.02, -187500.02, -187500.02, 0.00, 0.00, 0.00
247, -187500.02, -187500.02, -52472.64, -187500.02, 187500.00, -187500.02, -187500.02, -187500.02, 0.00, 0.00, 0.00
248, -187500.02, -187500.02, -50331.63, -187500.02, 187500.00, -187500.02, -187500.02, -187500.02, 0.00, 0.00, 0.00
249, -187500.02, -187500.02, -51689.88, -187500.02, 187500.00, -187500.02, -187500.02, -187500.02, 0.00, 0.00, 0.00
250, -187500.02, -187500.02, -53885.52, -187500.02, 187500.00, -187500.02, -187500.02, -187500.02, 0.00, 0.00, 0.00
251, -187500.02, -187500.02, -53001.62, -187500.02, 187500.00, -187500.02, -187500.02, -187500.02, 0.00, 0.00, 0.00
252, -187500.02, -187500.02, -50577.77, -187500.02, 187500.00, -187500.02, -187500.02, -187500.02, 0.00, 0.00, 0.00
253, -187500.02, -187500.02, -51266.43, -187500.02, 187500.00, -187500.02, -187500.02, -187500.02, 0.00, 0.00, 0.00
254, -187500.02, -187500.02, -53693.96, -187500.02, 187500.00, -187500.02, -187500.02, -187500.02, -0.04, 0.97, 0.16
255, -187500.02, -187500.02, -53364.32, -187500.02, 187500.00, -187500.02, -187500.02, -187500.02, 0.00, 0.00, 0.00
0, -187500.02, -187500.02, -50864.66, -187500.02, 187500.00, -187500.02, -187500.02, -187500.02, 0.00, 0.00, 0.00
1, -187500.02, -187500.02, -50853.43, -187500.02, 187500.00, -187500.02, -187500.02, -187500.02, 0.00, 0.00, 0.00
2, -187500.02, -187500.02, -53406.38, -187500.02, 187500.00, -187500.02, -187500.02, -187500.02, 0.00, 0.00, 0.00
3, -187500.02, -187500.02, -53695.91, -187500.02, 187500.00, -187500.02, -187500.02, -187500.02, 0.00, 0.00, 0.00
4, -187500.02, -187500.02, -51256.84, -187500.02, 187500.00, -187500.02, -187500.02, -187500.02, 0.00, 0.00, 0.00
5, -187500.02, -187500.02, -50536.71, -187500.02, 187500.00, -187500.02, -187500.02, -187500.02, 0.00, 0.00, 0.00
6, -187500.02, -187500.02, -52983.78, -187500.02, 187500.00, -187500.02, -187500.02, -187500.02, 0.00, 0.00, 0.00
7, -187500.02, -187500.02, -53883.44, -187500.02, 187500.00, -187500.02, -187500.02, -187500.02, 0.00, 0.00, 0.00
8, -187500.02, -187500.02, -51716.66, -187500.02, 187500.00, -187500.02, -187500.02, -187500.02, -0.04, 0.98, 0.16
9, -187500.02, -187500.02, -50383.71, -187500.02, 187500.00, -187500.02, -187500.02, -187500.02, 0.00, 0.00, 0.00
10, -187500.02, -187500.02, -52563.93, -187500.02, 187500.00, -187500.02, -187500.02, -187500.02, 0.00, 0.00, 0.00
11, -187500.02, -187500.02, -54021.77, -187500.02, 187500.00, -187500.02, -187500.02, -187500.02, 0.00, 0.00, 0.00
12, -187500.02, -187500.02, -52230.93, -187500.02, 187500.00, -187500.02, -187500.02, -187500.02, 0.00, 0.00, 0.00
13, -187500.02, -187500.02, -50373.97, -187500.02, 187500.00, -187500.02, -187500.02, -187500.02, 0.00, 0.00, 0.00
14, -187500.02, -187500.02, -52114.36, -187500.02, 187500.00, -187500.02, -187500.02, -187500.02, 0.00, 0.00, 0.00
15, -187500.02, -187500.02, -54030.00, -187500.02, 187500.00, -187500.02, -187500.02, -187500.02, 0.00, 0.00, 0.00
16, -187500.02, -187500.02, -52729.42, -187500.02, 187500.00, -187500.02, -187500.02, -187500.02, 0.00, 0.00, 0.00
17, -187500.02, -187500.02, -50488.25, -187500.02, 187500.00, -187500.02, -187500.02, -187500.02, 0.00, 0.00, 0.00
18, -187500.02, -187500.02, -51646.97, -187500.02, 187500.00, -187500.02, -187500.02, -187500.02, -0.03, 0.97, 0.16
19, -187500.02, -187500.02, -53916.70, -187500.02, 187500.00, -187500.02, -187500.02, -187500.02, 0.00, 0.00, 0.00
20, -187500.02, -187500.02, -53159.51, -187500.02, 187500.00, -187500.02, -187500.02, -187500.02, 0.00, 0.00, 0.00
21, -187500.02, -187500.02, -50734.23, -187500.02, 187500.00, -187500.02, -187500.02, -187500.02, 0.00, 0.00, 0.00
22, -187500.02, -187500.02, -51227.65, -187500.02, 187500.00, -187500.02, -187500.02, -187500.02, 0.00, 0.00, 0.00
23, -187500.02, -187500.02, -53672.88, -187500.02, 187500.00, -187500.02, -187500.02, -187500.02, 0.00, 0.00, 0.00
24, -187500.02, -187500.02, -53499.95, -187500.02, 187500.00, -187500.02, -187500.02, -187500.02, 0.00, 0.00, 0.00
25, -187500.02, -187500.02, -51020.34, -187500.02, 187500.00, -187500.02, -187500.02, -187500.02, 0.00, 0.00, 0.00
26, -187500.02, -187500.02, -50808.69, -187500.02, 187500.00, -187500.02, -187500.02, -187500.02, 0.00, 0.00, 0.00
27, -187500.02, -187500.02, -53335.21, -187500.02, 187500.00, -187500.02, -187500.02, -187500.02, -0.02, 0.98, 0.16
28, -187500.02, -187500.02, -53789.72, -187500.02, 187500.00, -187500.02, -187500.02, -187500.02, 0.00, 0.00, 0.00
29, -187500.02, -187500.02, -51453.36, -187500.02, 187500.00, -187500.02, -187500.02, -187500.02, 0.00, 0.00, 0.00
30, -187500.02, -187500.02, -50583.29, -187500.02, 187500.00, -187500.02, -187500.02, -187500.02, 0.00, 0.00, 0.00
31, -187500.02, -187500.02, -52969.86, -187500.02, 187500.00, -187500.02, -187500.02, -187500.02, 0.00, 0.00, 0.00
32, -187500.02, -187500.02, -53993.18, -187500.02, 187500.00, -187500.02, -187500.02, -187500.02, 0.00, 0.00, 0.00
33, -187500.02, -187500.02, -51869.77, -187500.02, 187500.00, -187500.02, -187500.02, -187500.02, 0.00, 0.00, 0.00
34, -187500.02, -187500.02, -50372.98, -187500.02, 187500.00, -187500.02, -187500.02, -187500.02, 0.00, 0.00, 0.00
35, -187500.02, -187500.02, -52447.54, -187500.02, 187500.00, -187500.02, -187500.02, -187500.02, 0.00, 0.00, 0.00
36, -187500.02, -187500.02, -54055.61, -187500.02, 187500.00, -187500.02, -187500.02, -187500.02, 0.00, 0.00, 0.00
37, -187500.02, -187500.02, -52403.71, -187500.02, 187500.00, -187500.02, -187500.02, -187500.02, -0.03, 0.99, 0.16
38, -187500.02, -187500.02, -50432.48, -187500.02, 187500.00, -187500.02, -187500.02, -187500.02, 0.00, 0.00, 0.00
39, -187500.02, -187500.02, -51995.25, -187500.02, 187500.00, -187500.02, -187500.02, -187500.02, 0.00, 0.00, 0.00
40, -187500.02, -187500.02, -54005.03, -187500.02, 187500.00, -187500.02, -187500.02, -187500.02, 0.00, 0.00, 0.00
41, -187500.02, -187500.02, -52894.66, -187500.02, 187500.00, -187500.02, -187500.02, -187500.02, 0.00, 0.00, 0.00
42, -187500.02, -187500.02, -50602.34, -187500.02, 187500.00, -187500.02, -187500.02, -187500.02, 0.00, 0.00, 0.00
43, -187500.02, -187500.02, -51580.87, -187500.02, 187500.00, -187500.02, -187500.02, -187500.02, 0.00, 0.00, 0.00
44, -187500.02, -187500.02, -53890.99, -187500.02, 187500.00, -187500.02, -187500.02, -187500.02, 0.00, 0.00, 0.00
45, -187500.02, -187500.02, -53287.36, -187500.02, 187500.00, -187500.02, -187500.02, -187500.02, 0.00, 0.00, 0.00
46, -187500.02, -187500.02, -50857.50, -187500.02, 187500.00, -187500.02, -187500.02, -187500.02, 0.00, 0.00, 0.00
47, -187500.02, -187500.02, -51192.29, -187500.02, 187500.00, -187500.02, -187500.02, -187500.02, -0.03, 0.99, 0.17
48, -187500.02, -187500.02, -53673.76, -187500.02, 187500.00, -187500.02, -187500.02, -187500.02, 0.00, 0.00, 0.00
49, -187500.02, -187500.02, -53677.15, -187500.02, 187500.00, -187500.02, -187500.02, -187500.02, 0.00, 0.00, 0.00
50, -187500.02, -187500.02, -51215.87, -187500.02, 187500.00, -187500.02, -187500.02, -187500.02, 0.00, 0.00, 0.00
51, -187500.02, -187500.02, -50849.55, -187500.02, 187500.00, -187500.02, -187500.02, -187500.02, 0.00, 0.00, 0.00
52, -187500.02, -187500.02, -53347.69, -187500.02, 187500.00, -187500.02, -187500.02, -187500.02, 0.00, 0.00, 0.00
53, -187500.02, -187500.02, -53917.03, -187500.02, 187500.00, -187500.02, -187500.02, -187500.02, 0.00, 0.00, 0.00
54, -187500.02, -187500.02, -51630.27, -187500.02, 187500.00, -187500.02, -187500.02, -187500.02, 0.00, 0.00, 0.00
55, -187500.02, -187500.02, -50599.83, -187500.02, 187500.00, -187500.02, -187500.02, -187500.02, 0.00, 0.00, 0.00
56, -187500.02, -187500.02, -52918.09, -187500.02, 187500.00, -187500.02, -187500.02, -187500.02, 0.00, 0.00, 0.00
57, -187500.02, -187500.02, -54110.53, -187500.02, 187500.00, -187500.02, -187500.02, -187500.02, -0.03, 0.98, 0.17
58, -187500.02, -187500.02, -52130.28, -187500.02, 187500.00, -187500.02, -187500.02, -187500.02, 0.00, 0.00, 0.00
59, -187500.02, -187500.02, -50487.09, -187500.02, 187500.00, -187500.02, -187500.02, -187500.02, 0.00, 0.00, 0.00
60, -187500.02, -187500.02, -52449.82, -187500.02, 187500.00, -187500.02, -187500.02, -187500.02, 0.00, 0.00, 0.00
61, -187500.02, -187500.02, -54144.84, -187500.02, 187500.00, -187500.02, -187500.02, -187500.02, 0.00, 0.00, 0.00
62, -187500.02, -187500.02, -52618.46, -187500.02, 187500.00, -187500.02, -187500.02, -187500.02, 0.00, 0.00, 0.00
63, -187500.02, -187500.02, -50533.92, -187500.02, 187500.00, -187500.02, -187500.02, -187500.02, 0.00, 0.00, 0.00
64, -187500.02, -187500.02, -51955.71, -187500.02, 187500.00, -187500.02, -187500.02, -187500.02, 0.00, 0.00, 0.00
65, -187500.02, -187500.02, -54053.38, -187500.02, 187500.00, -187500.02, -187500.02, -187500.02, 0.00, 0.00, 0.00
66, -187500.02, -187500.02, -53032.82, -187500.02, 187500.00, -187500.02, -187500.02, -187500.02, 0.00, 0.00, 0.00
67, -187500.02, -187500.02, -50702.18, -187500.02, 187500.00, -187500.02, -187500.02, -187500.02, -0.03, 0.97, 0.17
68, -187500.02, -187500.02, -51525.82, -187500.02, 187500.00, -187500.02, -187500.02, -187500.02, 0.00, 0.00, 0.00
69, -187500.02, -187500.02, -53921.70, -187500.02, 187500.00, -187500.02, -187500.02, -187500.02, 0.00, 0.00, 0.00
70, -187500.02, -187500.02, -53466.11, -187500.02, 187500.00, -187500.02, -187500.02, -187500.02, 0.00, 0.00, 0.00
71, -187500.02, -187500.02, -50975.54, -187500.02, 187500.00, -187500.02, -187500.02, -187500.02, 0.00, 0.00, 0.00
72, -187500.02, -187500.02, -51102.72, -187500.02, 187500.00, -187500.02, -187500.02, -187500.02, 0.00, 0.00, 0.00
73, -187500.02, -187500.02, -53618.73, -187500.02, 187500.00, -187500.02, -187500.02, -187500.02, 0.00, 0.00, 0.00
74, -187500.02, -187500.02, -53771.30, -187500.02, 187500.00, -187500.02, -187500.02, -187500.02, 0.00, 0.00, 0.00
75, -187500.02, -187500.02, -51336.28, -187500.02, 187500.00, -187500.02, -187500.02, -187500.02, 0.00, 0.00, 0.00
76, -187500.02, -187500.02, -50784.41, -187500.02, 187500.00, -187500.02, -187500.02, -187500.02, 0.00, 0.00, 0.00
77, -187500.02, -187500.02, -53249.01, -187500.02, 187500.00, -187500.02, -187500.02, -187500.02, -0.03, 0.97, 0.17
78, -187500.02, -187500.02, -54004.18, -187500.02, 187500.00, -187500.02, -187500.02, -187500.02, 0.00, 0.00, 0.00
79, -187500.02, -187500.02, -51767.29, -187500.02, 187500.00, -187500.02, -187500.02, -187500.02, 0.00, 0.00, 0.00
80, -187500.02, -187500.02, -50543.35, -187500.02, 187500.00, -187500.02, -187500.02, -187500.02, 0.00, 0.00, 0.00
81, -187500.02, -187500.02, -52768.64, -187500.02, 187500.00, -187500.02, -187500.02, -187500.02, 0.00, 0.00, 0.00
82, -187500.02, -187500.02, -54115.27, -187500.02, 187500.00, -187500.02, -187500.02, -187500.02, 0.00, 0.00, 0.00
83, -187500.02, -187500.02, -52254.29, -187500.02, 187500.00, -187500.02, -187500.02, -187500.02, 0.00, 0.00, 0.00
84, -187500.02, -187500.02, -50499.50, -187500.02, 187500.00, -187500.02, -187500.02, -187500.02, 0.00, 0.00, 0.00
85, -187500.02, -187500.02, -52314.05, -187500.02, 187500.00, -187500.02, -187500.02, -187500.02, 0.00, 0.00, 0.00
86, -187500.02, -187500.02, -54126.51, -187500.02, 187500.00, -187500.02, -187500.02, -187500.02, 0.00, 0.00, 0.00
87, -187500.02, -187500.02, -52713.95, -187500.02, 187500.00, -187500.02, -187500.02, -187500.02, -0.03, 0.97, 0.17
88, -187500.02, -187500.02, -50546.17, -187500.02, 187500.00, -187500.02, -187500.02, -187500.02, 0.00, 0.00, 0.00
89, -187500.02, -187500.02, -51837.58, -187500.02, 187500.00, -187500.02, -187500.02, -187500.02, 0.00, 0.00, 0.00
90, -187500.02, -187500.02, -54003.78, -187500.02, 187500.00, -187500.02, -187500.02, -187500.02, 0.00, 0.00, 0.00
91, -187500.02, -187500.02, -53134.07, -187500.02, 187500.00, -187500.02, -187500.02, -187500.02, 0.00, 0.00, 0.00
92, -187500.02, -187500.02, -50761.28, -187500.02, 187500.00, -187500.02, -187500.02, -187500.02, 0.00, 0.00, 0.00
93, -187500.02, -187500.02, -51403.78, -187500.02, 187500.00, -187500.02, -187500.02, -187500.02, 0.00, 0.00, 0.00
94, -187500.02, -187500.02, -53842.27, -187500.02, 187500.00, -187500.02, -187500.02, -187500.02, 0.00, 0.00, 0.00
95, -187500.02, -187500.02, -53572.68, -187500.02, 187500.00, -187500.02, -187500.02, -187500.02, 0.00, 0.00, 0.00
96, -187500.02, -187500.02, -51107.30, -187500.02, 187500.00, -187500.02, -187500.02, -187500.02, 0.00, 0.00, 0.00
97, -187500.02, -187500.02, -51080.17, -187500.02, 187500.00, -187500.02, -187500.02, -187500.02, -0.04, 0.97, 0.18
98, -187500.02, -187500.02, -53605.49, -187500.02, 187500.00, -187500.02, -187500.02, -187500.02, 0.00, 0.00, 0.00
99, -187500.02, -187500.02, -53931.54, -187500.02, 187500.00, -187500.02, -187500.02, -187500.02, 0.00, 0.00, 0.00
100, -187500.02, -187500.02, -51563.10, -187500.02, 187500.00, -187500.02, -187500.02, -187500.02, 0.00, 0.00, 0.00
101, -187500.02, -187500.02, -50848.70, -187500.02, 187500.00, -187500.02, -187500.02, -187500.02, 0.00, 0.00, 0.00
102, -187500.02, -187500.02, -53277.01, -187500.02, 187500.00, -187500.02, -187500.02, -187500.02, 0.00, 0.00, 0.00
103, -187500.02, -187500.02, -54217.86, -187500.02, 187500.00, -187500.02, -187500.02, -187500.02, 0.00, 0.00, 0.00
104, -187500.02, -187500.02, -52108.98, -187500.02, 187500.00, -187500.02, -187500.02, -187500.02, 0.00, 0.00, 0.00
105, -187500.02, -187500.02, -50736.51, -187500.02, 187500.00, -187500.02, -187500.02, -187500.02, 0.00, 0.00, 0.00
106, -187500.02, -187500.02, -52891.89, -187500.02, 187500.00, -187500.02, -187500.02, -187500.02, 0.00, 0.00, 0.00
107, -187500.02, -187500.02, -54349.74, -187500.02, 187500.00, -187500.02, -187500.02, -187500.02, -0.03, 0.97, 0.17
108, -187500.02, -187500.02, -52593.59, -187500.02, 187500.00, -187500.02, -187500.02, -187500.02, 0.00, 0.00, 0.00
109, -187500.02, -187500.02, -50730.95, -187500.02, 187500.00, -187500.02, -187500.02, -187500.02, 0.00, 0.00, 0.00
110, -187500.02, -187500.02, -52435.00, -187500.02, 187500.00, -187500.02, -187500.02, -187500.02, 0.00, 0.00, 0.00
111, -187500.02, -187500.02, -54323.16, -187500.02, 187500.00, -187500.02, -187500.02, -187500.02, 0.00, 0.00, 0.00
112, -187500.02, -187500.02, -53056.98, -187500.02, 187500.00, -187500.02, -187500.02, -187500.02, 0.00, 0.00, 0.00
113, -187500.02, -187500.02, -50842.84, -187500.02, 187500.00, -187500.02, -187500.02, -187500.02, 0.00, 0.00, 0.00
114, -187500.02, -187500.02, -51990.16, -187500.02, 187500.00, -187500.02, -187500.02, -187500.02, 0.00, 0.00, 0.00
115, -187500.02, -187500.02, -54274.77, -187500.02, 187500.00, -187500.02, -187500.02, -187500.02, 0.00, 0.00, 0.00
116, -187500.02, -187500.02, -53555.49, -187500.02, 187500.00, -187500.02, -187500.02, -187500.02, -0.03, 0.97, 0.17
117, -187500.02, -187500.02, -51141.77, -187500.02, 187500.00, -187500.02, -187500.02, -187500.02, 0.00, 0.00, 0.00
118, -187500.02, -187500.02, -51626.31, -187500.02, 187500.00, -187500.02, -187500.02, -187500.02, 0.00, 0.00, 0.00
119, -187500.02, -187500.02, -54117.10, -187500.02, 187500.00, -187500.02, -187500.02, -187500.02, 0.00, 0.00, 0.00
120, -187500.02, -187500.02, -53991.96, -187500.02, 187500.00, -187500.02, -187500.02, -187500.02, 0.00, 0.00, 0.00
121, -187500.02, -187500.02, -51517.93, -187500.02, 187500.00, -187500.02, -187500.02, -187500.02, 0.00, 0.00, 0.00
122, -187500.02, -187500.02, -51282.59, -187500.02, 187500.00, -187500.02, -187500.02, -187500.02, 0.00, 0.00, 0.00
123, -187500.02, -187500.02, -53805.95, -187500.02, 187500.00, -187500.02, -187500.02, -187500.02, 0.00, 0.00, 0.00
124, -187500.02, -187500.02, -54273.59, -187500.02, 187500.00, -187500.02, -187500.02, -187500.02, 0.00, 0.00, 0.00
125, -187500.02, -187500.02, -51955.04, -187500.02, 187500.00, -187500.02, -187500.02, -187500.02, 0.00, 0.00, 0.00
126, -187500.02, -187500.02, -51047.52, -187500.02, 187500.00, -187500.02, -187500.02, -187500.02, -0.03, 0.98, 0.17
127, -187500.02, -187500.02, -53402.61, -187500.02, 187500.00, -187500.02, -187500.02, -187500.02, 0.00, 0.00, 0.00
128, -187500.02, -187500.02, -54461.07, -187500.02, 187500.00, -187500.02, -187500.02, -187500.02, 0.00, 0.00, 0.00
129, -187500.02, -187500.02, -52436.90, -187500.02, 187500.00, -187500.02, -187500.02, -187500.02, 0.00, 0.00, 0.00
130, -187500.02, -187500.02, -50953.57, -187500.02, 187500.00, -187500.02, -187500.02, -187500.02, 0.00, 0.00, 0.00
131, -187500.02, -187500.02, -52987.98, -187500.02, 187500.00, -187500.02, -187500.02, -187500.02, 0.00, 0.00, 0.00
132, -187500.02, -187500.02, -54573.50, -187500.02, 187500.00, -187500.02, -187500.02, -187500.02, 0.00, 0.00, 0.00
133, -187500.02, -187500.02, -52948.35, -187500.02, 187500.00, -187500.02, -187500.02, -187500.02, 0.00, 0.00, 0.00
134, -187500.02, -187500.02, -50959.92, -187500.02, 187500.00, -187500.02, -187500.02, -187500.02, 0.00, 0.00, 0.00
135, -187500.02, -187500.02, -52506.08, -187500.02, 187500.00, -187500.02, -187500.02, -187500.02, 0.00, 0.00, 0.00
136, -187500.02, -187500.02, -54526.90, -187500.02, 187500.00, -187500.02, -187500.02, -187500.02, -0.03, 0.97, 0.17
137, -187500.02, -187500.02, -53407.26, -187500.02, 187500.00, -187500.02, -187500.02, -187500.02, 0.00, 0.00, 0.00
138, -187500.02, -187500.02, -51130.89, -187500.02, 187500.00, -187500.02, -187500.02, -187500.02, 0.00, 0.00, 0.00
139, -187500.02, -187500.02, -52093.44, -187500.02, 187500.00, -187500.02, -187500.02, -187500.02, 0.00, 0.00, 0.00
140, -187500.02, -187500.02, -54438.39, -187500.02, 187500.00, -187500.02, -187500.02, -187500.02, 0.00, 0.00, 0.00
141, -187500.02, -187500.02, -53865.71, -187500.02, 187500.00, -187500.02, -187500.02, -187500.02, 0.00, 0.00, 0.00
142, -187500.02, -187500.02, -51417.97, -187500.02, 187500.00, -187500.02, -187500.02, -187500.02, 0.00, 0.00, 0.00
143, -187500.02, -187500.02, -51707.05, -187500.02, 187500.00, -187500.02, -187500.02, -187500.02, 0.00, 0.00, 0.00
144, -187500.02, -187500.02, -54203.40, -187500.02, 187500.00, -187500.02, -187500.02, -187500.02, 0.00, 0.00, 0.00
145, -187500.02, -187500.02, -54215.29, -187500.02, 187500.00, -187500.02, -187500.02, -187500.02, 0.00, 0.00, 0.00
146, -187500.02, -187500.02, -51778.35, -187500.02, 187500.00, -187500.02, -187500.02, -187500.02, -0.03, 0.97, 0.18
147, -187500.02, -187500.02, -51342.16, -187500.02, 187500.00, -187500.02, -187500.02, -187500.02, 0.00, 0.00, 0.00
148, -187500.02, -187500.02, -53844.16, -187500.02, 187500.00, -187500.02, -187500.02, -187500.02, 0.00, 0.00, 0.00
149, -187500.02, -187500.02, -54465.48, -187500.02, 187500.00, -187500.02, -187500.02, -187500.02, 0.00, 0.00, 0.00
150, -187500.02, -187500.02, -52211.97, -187500.02, 187500.00, -187500.02, -187500.02, -187500.02, 0.00, 0.00, 0.00
151, -187500.02, -187500.02, -51146.40, -187500.02, 187500.00, -187500.02, -187500.02, -187500.02, 0.00, 0.00, 0.00
152, -187500.02, -187500.02, -53478.71, -187500.02, 187500.00, -187500.02, -187500.02, -187500.02, 0.00, 0.00, 0.00
153, -187500.02, -187500.02, -54685.35, -187500.02, 187500.00, -187500.02, -187500.02, -187500.02, 0.00, 0.00, 0.00
154, -187500.02, -187500.02, -52732.17, -187500.02, 187500.00, -187500.02, -187500.02, -187500.02, 0.00, 0.00, 0.00
155, -187500.02, -187500.02, -51091.19, -187500.02, 187500.00, -187500.02, -187500.02, -187500.02, 0.00, 0.00, 0.00
156, -187500.02, -187500.02, -53022.63, -187500.02, 187500.00, -187500.02, -187500.02, -187500.02, -0.03, 0.97, 0.18
157, -187500.02, -187500.02, -54750.57, -187500.02, 187500.00, -187500.02, -187500.02, -187500.02, 0.00, 0.00, 0.00
158, -187500.02, -187500.02, -53264.07, -187500.02, 187500.00, -187500.02, -187500.02, -187500.02, 0.00, 0.00, 0.00
159, -187500.02, -187500.02, -51189.67, -187500.02, 187500.00, -187500.02, -187500.02, -187500.02, 0.00, 0.00, 0.00
160, -187500.02, -187500.02, -52595.91, -187500.02, 187500.00, -187500.02, -187500.02, -187500.02, 0.00, 0.00, 0.00
161, -187500.02, -187500.02, -54718.05, -187500.02, 187500.00, -187500.02, -187500.02, -187500.02, 0.00, 0.00, 0.00
162, -187500.02, -187500.02, -53747.79, -187500.02, 187500.00, -187500.02, -187500.02, -187500.02, 0.00, 0.00, 0.00
163, -187500.02, -187500.02, -51398.33, -187500.02, 187500.00, -187500.02, -187500.02, -187500.02, 0.00, 0.00, 0.00
164, -187500.02, -187500.02, -52188.39, -187500.02, 187500.00, -187500.02, -187500.02, -187500.02, 0.00, 0.00, 0.00
165, -187500.02, -187500.02, -54594.63, -187500.02, 187500.00, -187500.02, -187500.02, -187500.02, 0.00, 0.00, 0.00
166, -187500.02, -187500.02, -54194.39, -187500.02, 187500.00, -187500.02, -187500.02, -187500.02, -0.03, 0.98, 0.18
167, -187500.02, -187500.02, -51734.38, -187500.02, 187500.00, -187500.02, -187500.02, -187500.02, 0.00, 0.00, 0.00
168, -187500.02, -187500.02, -51853.14, -187500.02, 187500.00, -187500.02, -187500.02, -187500.02, 0.00, 0.00, 0.00
169, -187500.02, -187500.02, -54366.53, -187500.02, 187500.00, -187500.02, -187500.02, -187500.02, 0.00, 0.00, 0.00
170, -187500.02, -187500.02, -54565.88, -187500.02, 187500.00, -187500.02, -187500.02, -187500.02, 0.00, 0.00, 0.00
171, -187500.02, -187500.02, -52196.44, -187500.02, 187500.00, -187500.02, -187500.02, -187500.02, 0.00, 0.00, 0.00
172, -187500.02, -187500.02, -51612.75, -187500.02, 187500.00, -187500.02, -187500.02, -187500.02, 0.00, 0.00, 0.00
173, -187500.02, -187500.02, -54049.58, -187500.02, 187500.00, -187500.02, -187500.02, -187500.02, 0.00, 0.00, 0.00
174, -187500.02, -187500.02, -54832.65, -187500.02, 187500.00, -187500.02, -187500.02, -187500.02, 0.00, 0.00, 0.00
175, -187500.02, -187500.02, -52686.32, -187500.02, 187500.00, -187500.02, -187500.02, -187500.02, 0.00, 0.00, 0.00
176, -187500.02, -187500.02, -51441.96, -187500.02, 187500.00, -187500.02, -187500.02, -187500.02, -0.03, 0.97, 0.18
177, -187500.02, -187500.02, -53643.00, -187500.02, 187500.00, -187500.02, -187500.02, -187500.02, 0.00, 0.00, 0.00
178, -187500.02, -187500.02, -54953.17, -187500.02, 187500.00, -187500.02, -187500.02, -187500.02, 0.00, 0.00, 0.00
179, -187500.02, -187500.02, -53106.38, -187500.02, 187500.00, -187500.02, -187500.02, -187500.02, 0.00, 0.00, 0.00
180, -187500.02, -187500.02, -51348.30, -187500.02, 187500.00, -187500.02, -187500.02, -187500.02, 0.00, 0.00, 0.00
181, -187500.02, -187500.02, -53168.38, -187500.02, 187500.00, -187500.02, -187500.02, -187500.02, 0.00, 0.00, 0.00
182, -187500.02, -187500.02, -54984.66, -187500.02, 187500.00, -187500.02, -187500.02, -187500.02, 0.00, 0.00, 0.00
183, -187500.02, -187500.02, -53607.95, -187500.02, 187500.00, -187500.02, -187500.02, -187500.02, 0.00, 0.00, 0.00
184, -187500.02, -187500.02, -51432.52, -187500.02, 187500.00, -187500.02, -187500.02, -187500.02, 0.00, 0.00, 0.00
185, -187500.02, -187500.02, -52678.52, -187500.02, 187500.00, -187500.02, -187500.02, -187500.02, 0.00, 0.00, 0.00
186, -187500.02, -187500.02, -54894.92, -187500.02, 187500.00, -187500.02, -187500.02, -187500.02, -0.03, 0.97, 0.18
187, -187500.02, -187500.02, -54049.80, -187500.02, 187500.00, -187500.02, -187500.02, -187500.02, 0.00, 0.00, 0.00
188, -187500.02, -187500.02, -51649.94, -187500.02, 187500.00, -187500.02, -187500.02, -187500.02, 0.00, 0.00, 0.00
189, -187500.02, -187500.02, -52250.71, -187500.02, 187500.00, -187500.02, -187500.02, -187500.02, 0.00, 0.00, 0.00
190, -187500.02, -187500.02, -54674.00, -187500.02, 187500.00, -187500.02, -187500.02, -187500.02, 0.00, 0.00, 0.00
191, -187500.02, -187500.02, -54421.18, -187500.02, 187500.00, -187500.02, -187500.02, -187500.02, 0.00, 0.00, 0.00
192, -187500.02, -187500.02, -51985.06, -187500.02, 187500.00, -187500.02, -187500.02, -187500.02, 0.00, 0.00, 0.00
193, -187500.02, -187500.02, -51899.79, -187500.02, 187500.00, -187500.02, -187500.02, -187500.02, 0.00, 0.00, 0.00
194, -187500.02, -187500.02, -54434.77, -187500.02, 187500.00, -187500.02, -187500.02, -187500.02, 0.00, 0.00, 0.00
195, -187500.02, -187500.02, -54794.54, -187500.02, 187500.00, -187500.02, -187500.02, -187500.02, 0.00, 0.00, 0.00
196, -187500.02, -187500.02, -52441.91, -187500.02, 187500.00, -187500.02, -187500.02, -187500.02, -0.03, 0.97, 0.18
197, -187500.02, -187500.02, -51664.76, -187500.02, 187500.00, -187500.02, -187500.02, -187500.02, 0.00, 0.00, 0.00
198, -187500.02, -187500.02, -54054.05, -187500.02, 187500.00, -187500.02, -187500.02, -187500.02, 0.00, 0.00, 0.00
199, -187500.02, -187500.02, -54989.58, -187500.02, 187500.00, -187500.02, -187500.02, -187500.02, 0.00, 0.00, 0.00
200, -187500.02, -187500.02, -52879.13, -187500.02, 187500.00, -187500.02, -187500.02, -187500.02, 0.00, 0.00, 0.00
201, -187500.02, -187500.02, -51484.34, -187500.02, 187500.00, -187500.02, -187500.02, -187500.02, 0.00, 0.00, 0.00
202, -187500.02, -187500.02, -53594.47, -187500.02, 187500.00, -187500.02, -187500.02, -187500.02, 0.00, 0.00, 0.00
203, -187500.02, -187500.02, -55076.30, -187500.02, 187500.00, -187500.02, -187500.02, -187500.02, 0.00, 0.00, 0.00
204, -187500.02, -187500.02, -53356.25, -187500.02, 187500.00, -187500.02, -187500.02, -187500.02, 0.00, 0.00, 0.00
205, -187500.02, -187500.02, -51470.28, -187500.02, 187500.00, -187500.02, -187500.02, -187500.02, -0.03, 0.98, 0.18
206, -187500.02, -187500.02, -53107.21, -187500.02, 187500.00, -187500.02, -187500.02, -187500.02, 0.00, 0.00, 0.00
207, -187500.02, -187500.02, -55042.55, -187500.02, 187500.00, -187500.02, -187500.02, -187500.02, 0.00, 0.00, 0.00
208, -187500.02, -187500.02, -53816.67, -187500.02, 187500.00, -187500.02, -187500.02, -187500.02, 0.00, 0.00, 0.00
209, -187500.02, -187500.02, -51559.01, -187500.02, 187500.00, -187500.02, -187500.02, -187500.02, 0.00, 0.00, 0.00
210, -187500.02, -187500.02, -52622.84, -187500.02, 187500.00, -187500.02, -187500.02, -187500.02, 0.00, 0.00, 0.00
211, -187500.02, -187500.02, -54926.04, -187500.02, 187500.00, -187500.02, -187500.02, -187500.02, 0.00, 0.00, 0.00
212, -187500.02, -187500.02, -54262.30, -187500.02, 187500.00, -187500.02, -187500.02, -187500.02, 0.00, 0.00, 0.00
213, -187500.02, -187500.02, -51824.69, -187500.02, 187500.00, -187500.02, -187500.02, -187500.02, 0.00, 0.00, 0.00
214, -187500.02, -187500.02, -52241.08, -187500.02, 187500.00, -187500.02, -187500.02, -187500.02, 0.00, 0.00, 0.00
215, -187500.02, -187500.02, -54725.54, -187500.02, 187500.00, -187500.02, -187500.02, -187500.02, -0.03, 0.98, 0.17
216, -187500.02, -187500.02, -54629.29, -187500.02, 187500.00, -187500.02, -187500.02, -187500.02, 0.00, 0.00, 0.00
217, -187500.02, -187500.02, -52169.51, -187500.02, 187500.00, -187500.02, -187500.02, -187500.02, 0.00, 0.00, 0.00
218, -187500.02, -187500.02, -51869.01, -187500.02, 187500.00, -187500.02, -187500.02, -187500.02, 0.00, 0.00, 0.00
219, -187500.02, -187500.02, -54367.98, -187500.02, 187500.00, -187500.02, -187500.02, -187500.02, 0.00, 0.00, 0.00
220, -187500.02, -187500.02, -54883.28, -187500.02, 187500.00, -187500.02, -187500.02, -187500.02, 0.00, 0.00, 0.00
221, -187500.02, -187500.02, -52575.93, -187500.02, 187500.00, -187500.02, -187500.02, -187500.02, 0.00, 0.00, 0.00
222, -187500.02, -187500.02, -51621.66, -187500.02, 187500.00, -187500.02, -187500.02, -187500.02, 0.00, 0.00, 0.00
223, -187500.02, -187500.02, -54001.86, -187500.02, 187500.00, -187500.02, -187500.02, -187500.02, 0.00, 0.00, 0.00
224, -187500.02, -187500.02, -55077.40, -187500.02, 187500.00, -187500.02, -187500.02, -187500.02, 0.00, 0.00, 0.00
225, -187500.02, -187500.02, -53052.02, -187500.02, 187500.00, -187500.02, -187500.02, -187500.02, -0.04, 0.97, 0.17
226, -187500.02, -187500.02, -51519.34, -187500.02, 187500.00, -187500.02, -187500.02, -187500.02, 0.00, 0.00, 0.00
227, -187500.02, -187500.02, -53543.91, -187500.02, 187500.00, -187500.02, -187500.02, -187500.02, 0.00, 0.00, 0.00
228, -187500.02, -187500.02, -55153.64, -187500.02, 187500.00, -187500.02, -187500.02, -187500.02, 0.00, 0.00, 0.00
229, -187500.02, -187500.02, -53560.99, -187500.02, 187500.00, -187500.02, -187500.02, -187500.02, 0.00, 0.00, 0.00
230, -187500.02, -187500.02, -51541.02, -187500.02, 187500.00, -187500.02, -187500.02, -187500.02, 0.00, 0.00, 0.00
231, -187500.02, -187500.02, -53057.25, -187500.02, 187500.00, -187500.02, -187500.02, -187500.02, 0.00, 0.00, 0.00
232, -187500.02, -187500.02, -55114.93, -187500.02, 187500.00, -187500.02, -187500.02, -187500.02, 0.00, 0.00, 0.00
233, -187500.02, -187500.02, -54020.97, -187500.02, 187500.00, -187500.02, -187500.02, -187500.02, 0.00, 0.00, 0.00
234, -187500.02, -187500.02, -51701.50, -187500.02, 187500.00, -187500.02, -187500.02, -187500.02, 0.00, 0.00, 0.00
235, -187500.02, -187500.02, -52630.27, -187500.02, 187500.00, -187500.02, -187500.02, -187500.02, -0.03, 0.98, 0.17
236, -187500.02, -187500.02, -54966.27, -187500.02, 187500.00, -187500.02, -187500.02, -187500.02, 0.00, 0.00, 0.00
237, -187500.02, -187500.02, -54429.87, -187500.02, 187500.00, -187500.02, -187500.02, -187500.02, 0.00, 0.00, 0.00
238, -187500.02, -187500.02, -51947.40, -187500.02, 187500.00, -187500.02, -187500.02, -187500.02, 0.00, 0.00, 0.00
239, -187500.02, -187500.02, -52168.23, -187500.02, 187500.00, -187500.02, -187500.02, -187500.02, 0.00, 0.00, 0.00
240, -187500.02, -187500.02, -54675.29, -187500.02, 187500.00, -187500.02, -187500.02, -187500.02, 0.00, 0.00, 0.00
241, -187500.02, -187500.02, -54753.59, -187500.02, 187500.00, -187500.02, -187500.02, -187500.02, 0.00, 0.00, 0.00
242, -187500.02, -187500.02, -52327.93, -187500.02, 187500.00, -187500.02, -187500.02, -187500.02, 0.00, 0.00, 0.00
243, -187500.02, -187500.02, -51813.38, -187500.02, 187500.00, -187500.02, -187500.02, -187500.02, 0.00, 0.00, 0.00
244, -187500.02, -187500.02, -54344.06, -187500.02, 187500.00, -187500.02, -187500.02, -187500.02, 0.00, 0.00, 0.00
245, -187500.02, -187500.02, -55045.66, -187500.02, 187500.00, -187500.02, -187500.02, -187500.02, -0.03, 0.97, 0.17
246, -187500.02, -187500.02, -52810.73, -187500.02, 187500.00, -187500.02, -187500.02, -187500.02, 0.00, 0.00, 0.00
247, -187500.02, -187500.02, -51667.46, -187500.02, 187500.00, -187500.02, -187500.02, -187500.02, 0.00, 0.00, 0.00
248, -187500.02, -187500.02, -53953.58, -187500.02, 187500.00, -187500.02, -187500.02, -187500.02, 0.00, 0.00, 0.00
249, -187500.02, -187500.02, -55215.87, -187500.02, 187500.00, -187500.02, -187500.02, -187500.02, 0.00, 0.00, 0.00
250, -187500.02, -187500.02, -53291.68, -187500.02, 187500.00, -187500.02, -187500.02, -187500.02, 0.00, 0.00, 0.00
251, -187500.02, -187500.02, -51612.03, -187500.02, 187500.00, -187500.02, -187500.02, -187500.02, 0.00, 0.00, 0.00
252, -187500.02, -187500.02, -53515.91, -187500.02, 187500.00, -187500.02, -187500.02, -187500.02, 0.00, 0.00, 0.00
253, -187500.02, -187500.02, -55248.91, -187500.02, 187500.00, -187500.02, -187500.02, -187500.02, 0.00, 0.00, 0.00
254, -187500.02, -187500.02, -53778.23, -187500.02, 187500.00, -187500.02, -187500.02, -187500.02, 0.00, 0.00, 0.00
255, -187500.02, -187500.02, -51650.50, -187500.02, 187500.00, -187500.02, -187500.02, -187500.02, -0.03, 0.98, 0.17
0, -187500.02, -187500.02, -53023.34, -187500.02, 187500.00, -187500.02, -187500.02, -187500.02, 0.00, 0.00, 0.00
1, -187500.02, -187500.02, -55187.26, -187500.02, 187500.00, -187500.02, -187500.02, -187500.02, 0.00, 0.00, 0.00
2, -187500.02, -187500.02, -54234.45, -187500.02, 187500.00, -187500.02, -187500.02, -187500.02, 0.00, 0.00, 0.00
3, -187500.02, -187500.02, -51849.27, -187500.02, 187500.00, -187500.02, -187500.02, -187500.02, 0.00, 0.00, 0.00
4, -187500.02, -187500.02, -52600.85, -187500.02, 187500.00, -187500.02, -187500.02, -187500.02, 0.00, 0.00, 0.00
5, -187500.02, -187500.02, -55032.30, -187500.02, 187500.00, -187500.02, -187500.02, -187500.02, 0.00, 0.00, 0.00
6, -187500.02, -187500.02, -54668.43, -187500.02, 187500.00, -187500.02, -187500.02, -187500.02, 0.00, 0.00, 0.00
7, -187500.02, -187500.02, -52168.37, -187500.02, 187500.00, -187500.02, -187500.02, -187500.02, 0.00, 0.00, 0.00
8, -187500.02, -187500.02, -52208.33, -187500.02, 187500.00, -187500.02, -187500.02, -187500.02, 0.00, 0.00, 0.00
9, -187500.02, -187500.02, -54751.40, -187500.02, 187500.00, -187500.02, -187500.02, -187500.02, -0.03, 0.97, 0.17
10, -187500.02, -187500.02, -54975.75, -187500.02, 187500.00, -187500.02, -187500.02, -187500.02, 0.00, 0.00, 0.00
11, -187500.02, -187500.02, -52559.21, -187500.02, 187500.00, -187500.02, -187500.02, -187500.02, 0.00, 0.00, 0.00
12, -187500.02, -187500.02, -51900.19, -187500.02, 187500.00, -187500.02, -187500.02, -187500.02, 0.00, 0.00, 0.00
13, -187500.02, -187500.02, -54387.65, -187500.02, 187500.00, -187500.02, -187500.02, -187500.02, 0.00, 0.00, 0.00
14, -187500.02, -187500.02, -55209.63, -187500.02, 187500.00, -187500.02, -187500.02, -187500.02, 0.00, 0.00, 0.00
15, -187500.02, -187500.02, -53021.89, -187500.02, 187500.00, -187500.02, -187500.02, -187500.02, 0.00, 0.00, 0.00
16, -187500.02, -187500.02, -51711.16, -187500.02, 187500.00, -187500.02, -187500.02, -187500.02, 0.00, 0.00, 0.00
17, -187500.02, -187500.02, -53925.14, -187500.02, 187500.00, -187500.02, -187500.02, -187500.02, 0.00, 0.00, 0.00
18, -187500.02, -187500.02, -55291.44, -187500.02, 187500.00, -187500.02, -187500.02, -187500.02, 0.00, 0.00, 0.00
19, -187500.02, -187500.02, -53479.95, -187500.02, 187500.00, -187500.02, -187500.02, -187500.02, -0.03, 0.97, 0.17
20, -187500.02, -187500.02, -51658.21, -187500.02, 187500.00, -187500.02, -187500.02, -187500.02, 0.00, 0.00, 0.00
21, -187500.02, -187500.02, -53453.61, -187500.02, 187500.00, -187500.02, -187500.02, -187500.02, 0.00, 0.00, 0.00
22, -187500.02, -187500.02, -55308.43, -187500.02, 187500.00, -187500.02, -187500.02, -187500.02, 0.00, 0.00, 0.00
23, -187500.02, -187500.02, -53950.00, -187500.02, 187500.00, -187500.02, -187500.02, -187500.02, 0.00, 0.00, 0.00
24, -187500.02, -187500.02, -51714.63, -187500.02, 187500.00, -187500.02, -187500.02, -187500.02, 0.00, 0.00, 0.00
25, -187500.02, -187500.02, -52960.07, -187500.02, 187500.00, -187500.02, -187500.02, -187500.02, 0.00, 0.00, 0.00
26, -187500.02, -187500.02, -55232.25, -187500.02, 187500.00, -187500.02, -187500.02, -187500.02, 0.00, 0.00, 0.00
27, -187500.02, -187500.02, -54481.73, -187500.02, 187500.00, -187500.02, -187500.02, -187500.02, 0.00, 0.00, 0.00
28, -187500.02, -187500.02, -52049.99, -187500.02, 187500.00, -187500.02, -187500.02, -187500.02, 0.00, 0.00, 0.00
29, -187500.02, -187500.02, -52566.52, -187500.02, 187500.00, -187500.02, -187500.02, -187500.02, -0.03, 0.97, 0.17
30, -187500.02, -187500.02, -55042.73, -187500.02, 187500.00, -187500.02, -187500.02, -187500.02, 0.00, 0.00, 0.00
31, -187500.02, -187500.02, -54840.81, -187500.02, 187500.00, -187500.02, -187500.02, -187500.02, 0.00, 0.00, 0.00
32, -187500.02, -187500.02, -52369.40, -187500.02, 187500.00, -187500.02, -187500.02, -187500.02, 0.00, 0.00, 0.00
33, -187500.02, -187500.02, -52201.31, -187500.02, 187500.00, -187500.02, -187500.02, -187500.02, 0.00, 0.00, 0.00
34, -187500.02, -187500.02, -54738.73, -187500.02, 187500.00, -187500.02, -187500.02, -187500.02, 0.00, 0.00, 0.00
35, -187500.02, -187500.02, -55133.64, -187500.02, 187500.00, -187500.02, -187500.02, -187500.02, 0.00, 0.00, 0.00
36, -187500.02, -187500.02, -52766.92, -187500.02, 187500.00, -187500.02, -187500.02, -187500.02, 0.00, 0.00, 0.00
37, -187500.02, -187500.02, -51915.95, -187500.02, 187500.00, -187500.02, -187500.02, -187500.02, 0.00, 0.00, 0.00
38, -187500.02, -187500.02, -54363.62, -187500.02, 187500.00, -187500.02, -187500.02, -187500.02, -0.03, 0.97, 0.17
39, -187500.02, -187500.02, -55351.50, -187500.02, 187500.00, -187500.02, -187500.02, -187500.02, 0.00, 0.00, 0.00
40, -187500.02, -187500.02, -53263.11, -187500.02, 187500.00, -187500.02, -187500.02, -187500.02, 0.00, 0.00, 0.00
41, -187500.02, -187500.02, -51778.86, -187500.02, 187500.00, -187500.02, -187500.02, -187500.02, 0.00, 0.00, 0.00
42, -187500.02, -187500.02, -53881.25, -187500.02, 187500.00, -187500.02, -187500.02, -187500.02, 0.00, 0.00, 0.00
43, -187500.02, -187500.02, -55417.08, -187500.02, 187500.00, -187500.02, -187500.02, -187500.02, 0.00, 0.00, 0.00
44, -187500.02, -187500.02, -53737.91, -187500.02, 187500.00, -187500.02, -187500.02, -187500.02, 0.00, 0.00, 0.00
45, -187500.02, -187500.02, -51763.62, -187500.02, 187500.00, -187500.02, -187500.02, -187500.02, 0.00, 0.00, 0.00
46, -187500.02, -187500.02, -53383.43, -187500.02, 187500.00, -187500.02, -187500.02, -187500.02, 0.00, 0.00, 0.00
47, -187500.02, -187500.02, -55397.93, -187500.02, 187500.00, -187500.02, -187500.02, -187500.02, 0.00, 0.00, 0.00
48, -187500.02, -187500.02, -54227.99, -187500.02, 187500.00, -187500.02, -187500.02, -187500.02, -0.03, 0.97, 0.17
49, -187500.02, -187500.02, -51962.68, -187500.02, 187500.00, -187500.02, -187500.02, -187500.02, 0.00, 0.00, 0.00
50, -187500.02, -187500.02, -53032.75, -187500.02, 187500.00, -187500.02, -187500.02, -187500.02, 0.00, 0.00, 0.00
51, -187500.02, -187500.02, -55347.97, -187500.02, 187500.00, -187500.02, -187500.02, -187500.02, 0.00, 0.00, 0.00
52, -187500.02, -187500.02, -54689.80, -187500.02, 187500.00, -187500.02, -187500.02, -187500.02, 0.00, 0.00, 0.00
53, -187500.02, -187500.02, -52244.72, -187500.02, 187500.00, -187500.02, -187500.02, -187500.02, 0.00, 0.00, 0.00
54, -187500.02, -187500.02, -52614.29, -187500.02, 187500.00, -187500.02, -187500.02, -187500.02, 0.00, 0.00, 0.00
55, -187500.02, -187500.02, -55121.37, -187500.02, 187500.00, -187500.02, -187500.02, -187500.02, 0.00, 0.00, 0.00
56, -187500.02, -187500.02, -55068.15, -187500.02, 187500.00, -187500.02, -187500.02, -187500.02, 0.00, 0.00, 0.00
57, -187500.02, -187500.02, -52593.41, -187500.02, 187500.00, -187500.02, -187500.02, -187500.02, 0.00, 0.00, 0.00
58, -187500.02, -187500.02, -52237.07, -187500.02, 187500.00, -187500.02, -187500.02, -187500.02, -0.03, 0.97, 0.17
59, -187500.02, -187500.02, -54778.80, -187500.02, 187500.00, -187500.02, -187500.02, -187500.02, 0.00, 0.00, 0.00
60, -187500.02, -187500.02, -55360.29, -187500.02, 187500.00, -187500.02, -187500.02, -187500.02, 0.00, 0.00, 0.00
61, -187500.02, -187500.02, -53083.60, -187500.02, 187500.00, -187500.02, -187500.02, -187500.02, 0.00, 0.00, 0.00
62, -187500.02, -187500.02, -52064.39, -187500.02, 187500.00, -187500.02, -187500.02, -187500.02, 0.00, 0.00, 0.00
63, -187500.02, -187500.02, -54450.82, -187500.02, 187500.00, -187500.02, -187500.02, -187500.02, 0.00, 0.00, 0.00
64, -187500.02, -187500.02, -55584.74, -187500.02, 187500.00, -187500.02, -187500.02, -187500.02, 0.00, 0.00, 0.00
65, -187500.02, -187500.02, -53585.55, -187500.02, 187500.00, -187500.02, -187500.02, -187500.02, 0.00, 0.00, 0.00
66, -187500.02, -187500.02, -51968.41, -187500.02, 187500.00, -187500.02, -187500.02, -187500.02, 0.00, 0.00, 0.00
67, -187500.02, -187500.02, -54012.07, -187500.02, 187500.00, -187500.02, -187500.02, -187500.02, 0.00, 0.00, 0.00
68, -187500.02, -187500.02, -55690.22, -187500.02, 187500.00, -187500.02, -187500.02, -187500.02, -0.02, 0.97, 0.17
69, -187500.02, -187500.02, -54117.13, -187500.02, 187500.00, -187500.02, -187500.02, -187500.02, 0.00, 0.00, 0.00
70, -187500.02, -187500.02, -52038.68, -187500.02, 187500.00, -187500.02, -187500.02, -187500.02, 0.00, 0.00, 0.00
71, -187500.02, -187500.02, -53553.75, -187500.02, 187500.00, -187500.02, -187500.02, -187500.02, 0.00, 0.00, 0.00
72, -187500.02, -187500.02, -55659.29, -187500.02, 187500.00, -187500.02, -187500.02, -187500.02, 0.00, 0.00, 0.00
73, -187500.02, -187500.02, -54604.66, -187500.02, 187500.00, -187500.02, -187500.02, -187500.02, 0.00, 0.00, 0.00
74, -187500.02, -187500.02, -52236.63, -187500.02, 187500.00, -187500.02, -187500.02, -187500.02, 0.00, 0.00, 0.00
75, -187500.02, -187500.02, -53095.81, -187500.02, 187500.00, -187500.02, -187500.02, -187500.02, 0.00, 0.00, 0.00
76, -187500.02, -187500.02, -55507.92, -187500.02, 187500.00, -187500.02, -187500.02, -187500.02, 0.00, 0.00, 0.00
77, -187500.02, -187500.02, -55043.05, -187500.02, 187500.00, -187500.02, -187500.02, -187500.02, 0.00, 0.00, 0.00
78, -187500.02, -187500.02, -52549.53, -187500.02, 187500.00, -187500.02, -187500.02, -187500.02, -0.03, 0.97, 0.17
79, -187500.02, -187500.02, -52746.16, -187500.02, 187500.00, -187500.02, -187500.02, -187500.02, 0.00, 0.00, 0.00
80, -187500.02, -187500.02, -55284.67, -187500.02, 187500.00, -187500.02, -187500.02, -187500.02, 0.00, 0.00, 0.00
81, -187500.02, -187500.02, -55397.39, -187500.02, 187500.00, -187500.02, -187500.02, -187500.02, 0.00, 0.00, 0.00
82, -187500.02, -187500.02, -52950.54, -187500.02, 187500.00, -187500.02, -187500.02, -187500.02, 0.00, 0.00, 0.00
83, -187500.02, -187500.02, -52386.03, -187500.02, 187500.00, -187500.02, -187500.02, -187500.02, 0.00, 0.00, 0.00
84, -187500.02, -187500.02, -54912.20, -187500.02, 187500.00, -187500.02, -187500.02, -187500.02, 0.00, 0.00, 0.00
85, -187500.02, -187500.02, -55624.46, -187500.02, 187500.00, -187500.02, -187500.02, -187500.02, 0.00, 0.00, 0.00
86, -187500.02, -187500.02, -53362.87, -187500.02, 187500.00, -187500.02, -187500.02, -187500.02, 0.00, 0.00, 0.00
87, -187500.02, -187500.02, -52161.93, -187500.02, 187500.00, -187500.02, -187500.02, -187500.02, 0.00, 0.00, 0.00
88, -187500.02, -187500.02, -54441.27, -187500.02, 187500.00, -187500.02, -187500.02, -187500.02, -0.03, 0.97, 0.17
89, -187500.02, -187500.02, -55740.31, -187500.02, 187500.00, -187500.02, -187500.02, -187500.02, 0.00, 0.00, 0.00
90, -187500.02, -187500.02, -53849.89, -187500.02, 187500.00, -187500.02, -187500.02, -187500.02, 0.00, 0.00, 0.00
91, -187500.02, -187500.02, -52096.41, -187500.02, 187500.00, -187500.02, -187500.02, -187500.02, 0.00, 0.00, 0.00
92, -187500.02, -187500.02, -53984.94, -187500.02, 187500.00, -187500.02, -187500.02, -187500.02, 0.00, 0.00, 0.00
93, -187500.02, -187500.02, -55791.20, -187500.02, 187500.00, -187500.02, -187500.02, -187500.02, 0.00, 0.00, 0.00
94, -187500.02, -187500.02, -54356.27, -187500.02, 187500.00, -187500.02, -187500.02, -187500.02, 0.00, 0.00, 0.00
95, -187500.02, -187500.02, -52180.48, -187500.02, 187500.00, -187500.02, -187500.02, -187500.02, 0.00, 0.00, 0.00
96, -187500.02, -187500.02, -53502.30, -187500.02, 187500.00, -187500.02, -187500.02, -187500.02, 0.00, 0.00, 0.00
97, -187500.02, -187500.02, -55683.54, -187500.02, 187500.00, -187500.02, -187500.02, -187500.02, 0.00, 0.00, 0.00
98, -187500.02, -187500.02, -54798.92, -187500.02, 187500.00, -187500.02, -187500.02, -187500.02, -0.03, 0.96, 0.17
99, -187500.02, -187500.02, -52362.04, -187500.02, 187500.00, -187500.02, -187500.02, -187500.02, 0.00, 0.00, 0.00
100, -187500.02, -187500.02, -53040.69, -187500.02, 187500.00, -187500.02, -187500.02, -187500.02, 0.00, 0.00, 0.00
101, -187500.02, -187500.02, -55489.05, -187500.02, 187500.00, -187500.02, -187500.02, -187500.02, 0.00, 0.00, 0.00
102, -187500.02, -187500.02, -55181.00, -187500.02, 187500.00, -187500.02, -187500.02, -187500.02, 0.00, 0.00, 0.00
103, -187500.02, -187500.02, -52717.79, -187500.02, 187500.00, -187500.02, -187500.02, -187500.02, 0.00, 0.00, 0.00
104, -187500.02, -187500.02, -52668.00, -187500.02, 187500.00, -187500.02, -187500.02, -187500.02, 0.00, 0.00, 0.00
105, -187500.02, -187500.02, -55185.25, -187500.02, 187500.00, -187500.02, -187500.02, -187500.02, 0.00, 0.00, 0.00
106, -187500.02, -187500.02, -55468.69, -187500.02, 187500.00, -187500.02, -187500.02, -187500.02, 0.00, 0.00, 0.00
107, -187500.02, -187500.02, -53087.49, -187500.02, 187500.00, -187500.02, -187500.02, -187500.02, 0.00, 0.00, 0.00
108, -187500.02, -187500.02, -52389.00, -187500.02, 187500.00, -187500.02, -187500.02, -187500.02, -0.03, 0.97, 0.17
109, -187500.02, -187500.02, -54852.39, -187500.02, 187500.00, -187500.02, -187500.02, -187500.02, 0.00, 0.00, 0.00
110, -187500.02, -187500.02, -55737.00, -187500.02, 187500.00, -187500.02, -187500.02, -187500.02, 0.00, 0.00, 0.00
111, -187500.02, -187500.02, -53560.19, -187500.02, 187500.00, -187500.02, -187500.02, -187500.02, 0.00, 0.00, 0.00
112, -187500.02, -187500.02, -52201.76, -187500.02, 187500.00, -187500.02, -187500.02, -187500.02, 0.00, 0.00, 0.00
113, -187500.02, -187500.02, -54421.45, -187500.02, 187500.00, -187500.02, -187500.02, -187500.02, 0.00, 0.00, 0.00
114, -187500.02, -187500.02, -55851.78, -187500.02, 187500.00, -187500.02, -187500.02, -187500.02, 0.00, 0.00, 0.00
115, -187500.02, -187500.02, -54049.29, -187500.02, 187500.00, -187500.02, -187500.02, -187500.02, 0.00, 0.00, 0.00
116, -187500.02, -187500.02, -52154.04, -187500.02, 187500.00, -187500.02, -187500.02, -187500.02, 0.00, 0.00, 0.00
117, -187500.02, -187500.02, -53952.01, -187500.02, 187500.00, -187500.02, -187500.02, -187500.02, 0.00, 0.00, 0.00
118, -187500.02, -187500.02, -55898.98, -187500.02, 187500.00, -187500.02, -187500.02, -187500.02, -0.04, 0.98, 0.17
119, -187500.02, -187500.02, -54618.79, -187500.02, 187500.00, -187500.02, -187500.02, -187500.02, 0.00, 0.00, 0.00
120, -187500.02, -187500.02, -52361.04, -187500.02, 187500.00, -187500.02, -187500.02, -187500.02, 0.00, 0.00, 0.00
121, -187500.02, -187500.02, -53513.11, -187500.02, 187500.00, -187500.02, -187500.02, -187500.02, 0.00, 0.00, 0.00
122, -187500.02, -187500.02, -55793.51, -187500.02, 187500.00, -187500.02, -187500.02, -187500.02, 0.00, 0.00, 0.00
123, -187500.02, -187500.02, -55042.78, -187500.02, 187500.00, -187500.02, -187500.02, -187500.02, 0.00, 0.00, 0.00
124, -187500.02, -187500.02, -52586.34, -187500.02, 187500.00, -187500.02, -187500.02, -187500.02, 0.00, 0.00, 0.00
125, -187500.02, -187500.02, -53087.89, -187500.02, 187500.00, -187500.02, -187500.02, -187500.02, 0.00, 0.00, 0.00
126, -187500.02, -187500.02, -55597.75, -187500.02, 187500.00, -187500.02, -187500.02, -187500.02, 0.00, 0.00, 0.00
127, -187500.02, -187500.02, -55460.73, -187500.02, 187500.00, -187500.02, -187500.02, -187500.02, -0.04, 0.97, 0.17
128, -187500.02, -187500.02, -52990.82, -187500.02, 187500.00, -187500.02, -187500.02, -187500.02, 0.00, 0.00, 0.00
129, -187500.02, -187500.02, -52789.03, -187500.02, 187500.00, -187500.02, -187500.02, -187500.02, 0.00, 0.00, 0.00
130, -187500.02, -187500.02, -55323.40, -187500.02, 187500.00, -187500.02, -187500.02, -187500.02, 0.00, 0.00, 0.00
131, -187500.02, -187500.02, -55749.74, -187500.02, 187500.00, -187500.02, -187500.02, -187500.02, 0.00, 0.00, 0.00
132, -187500.02, -187500.02, -53399.16, -187500.02, 187500.00, -187500.02, -187500.02, -187500.02, 0.00, 0.00, 0.00
133, -187500.02, -187500.02, -52520.38, -187500.02, 187500.00, -187500.02, -187500.02, -187500.02, 0.00, 0.00, 0.00
134, -187500.02, -187500.02, -54941.64, -187500.02, 187500.00, -187500.02, -187500.02, -187500.02, 0.00, 0.00, 0.00
135, -187500.02, -187500.02, -55975.38, -187500.02, 187500.00, -187500.02, -187500.02, -187500.02, 0.00, 0.00, 0.00
136, -187500.02, -187500.02, -53917.90, -187500.02, 187500.00, -187500.02, -187500.02, -187500.02, 0.00, 0.00, 0.00
137, -187500.02, -187500.02, -52419.51, -187500.02, 187500.00, -187500.02, -187500.02, -187500.02, -0.03, 0.97, 0.17
138, -187500.02, -187500.02, -54500.10, -187500.02, 187500.00, -187500.02, -187500.02, -187500.02, 0.00, 0.00, 0.00
139, -187500.02, -187500.02, -56058.66, -187500.02, 187500.00, -187500.02, -187500.02, -187500.02, 0.00, 0.00, 0.00
140, -187500.02, -187500.02, -54379.94, -187500.02, 187500.00, -187500.02, -187500.02, -187500.02, 0.00, 0.00, 0.00
141, -187500.02, -187500.02, -52382.16, -187500.02, 187500.00, -187500.02, -187500.02, -187500.02, 0.00, 0.00, 0.00
142, -187500.02, -187500.02, -54016.43, -187500.02, 187500.00, -187500.02, -187500.02, -187500.02, 0.00, 0.00, 0.00
143, -187500.02, -187500.02, -56031.80, -187500.02, 187500.00, -187500.02, -187500.02, -187500.02, 0.00, 0.00, 0.00
144, -187500.02, -187500.02, -54846.95, -187500.02, 187500.00, -187500.02, -187500.02, -187500.02, 0.00, 0.00, 0.00
145, -187500.02, -187500.02, -52525.97, -187500.02, 187500.00, -187500.02, -187500.02, -187500.02, 0.00, 0.00, 0.00
146, -187500.02, -187500.02, -53522.48, -187500.02, 187500.00, -187500.02, -187500.02, -187500.02, 0.00, 0.00, 0.00
147, -187500.02, -187500.02, -55862.59, -187500.02, 187500.00, -187500.02, -187500.02, -187500.02, -0.03, 0.97, 0.17
148, -187500.02, -187500.02, -55242.20, -187500.02, 187500.00, -187500.02, -187500.02, -187500.02, 0.00, 0.00, 0.00
149, -187500.02, -187500.02, -52783.73, -187500.02, 187500.00, -187500.02, -187500.02, -187500.02, 0.00, 0.00, 0.00
150, -187500.02, -187500.02, -53101.73, -187500.02, 187500.00, -187500.02, -187500.02, -187500.02, 0.00, 0.00, 0.00
151, -187500.02, -187500.02, -55624.75, -187500.02, 187500.00, -187500.02, -187500.02, -187500.02, 0.00, 0.00, 0.00
152, -187500.02, -187500.02, -55629.42, -187500.02, 187500.00, -187500.02, -187500.02, -187500.02, 0.00, 0.00, 0.00
153, -187500.02, -187500.02, -53190.64, -187500.02, 187500.00, -187500.02, -187500.02, -187500.02, 0.00, 0.00, 0.00
154, -187500.02, -187500.02, -52800.16, -187500.02, 187500.00, -187500.02, -187500.02, -187500.02, 0.00, 0.00, 0.00
155, -187500.02, -187500.02, -55311.60, -187500.02, 187500.00, -187500.02, -187500.02, -187500.02, 0.00, 0.00, 0.00
156, -187500.02, -187500.02, -55897.42, -187500.02, 187500.00, -187500.02, -187500.02, -187500.02, 0.00, 0.00, 0.00
157, -187500.02, -187500.02, -53597.49, -187500.02, 187500.00, -187500.02, -187500.02, -187500.02, -0.02, 0.97, 0.17
158, -187500.02, -187500.02, -52530.82, -187500.02, 187500.00, -187500.02, -187500.02, -187500.02, 0.00, 0.00, 0.00
159, -187500.02, -187500.02, -54864.46, -187500.02, 187500.00, -187500.02, -187500.02, -187500.02, 0.00, 0.00, 0.00
160, -187500.02, -187500.02, -56045.63, -187500.02, 187500.00, -187500.02, -187500.02, -187500.02, 0.00, 0.00, 0.00
161, -187500.02, -187500.02, -54059.32, -187500.02, 187500.00, -187500.02, -187500.02, -187500.02, 0.00, 0.00, 0.00
162, -187500.02, -187500.02, -52406.03, -187500.02, 187500.00, -187500.02, -187500.02, -187500.02, 0.00, 0.00, 0.00
163, -187500.02, -187500.02, -54396.19, -187500.02, 187500.00, -187500.02, -187500.02, -187500.02, 0.00, 0.00, 0.00
164, -187500.02, -187500.02, -56107.04, -187500.02, 187500.00, -187500.02, -187500.02, -187500.02, 0.00, 0.00, 0.00
165, -187500.02, -187500.02, -54556.54, -187500.02, 187500.00, -187500.02, -187500.02, -187500.02, 0.00, 0.00, 0.00
166, -187500.02, -187500.02, -52475.30, -187500.02, 187500.00, -187500.02, -187500.02, -187500.02, 0.00, 0.00, 0.00
167, -187500.02, -187500.02, -53949.38, -187500.02, 187500.00, -187500.02, -187500.02, -187500.02, -0.02, 0.98, 0.18
168, -187500.02, -187500.02, -56063.29, -187500.02, 187500.00, -187500.02, -187500.02, -187500.02, 0.00, 0.00, 0.00
169, -187500.02, -187500.02, -55034.39, -187500.02, 187500.00, -187500.02, -187500.02, -187500.02, 0.00, 0.00, 0.00
170, -187500.02, -187500.02, -52630.71, -187500.02, 187500.00, -187500.02, -187500.02, -187500.02, 0.00, 0.00, 0.00
171, -187500.02, -187500.02, -53446.51, -187500.02, 187500.00, -187500.02, -187500.02, -187500.02, 0.00, 0.00, 0.00
172, -187500.02, -187500.02, -55883.65, -187500.02, 187500.00, -187500.02, -187500.02, -187500.02, 0.00, 0.00, 0.00
173, -187500.02, -187500.02, -55465.02, -187500.02, 187500.00, -187500.02, -187500.02, -187500.02, 0.00, 0.00, 0.00
174, -187500.02, -187500.02, -52995.78, -187500.02, 187500.00, -187500.02, -187500.02, -187500.02, 0.00, 0.00, 0.00
175, -187500.02, -187500.02, -53093.80, -187500.02, 187500.00, -187500.02, -187500.02, -187500.02, 0.00, 0.00, 0.00
176, -187500.02, -187500.02, -55651.30, -187500.02, 187500.00, -187500.02, -187500.02, -187500.02, 0.00, 0.00, 0.00
177, -187500.02, -187500.02, -55794.47, -187500.02, 187500.00, -187500.02, -187500.02, -187500.02, -0.03, 0.97, 0.17
178, -187500.02, -187500.02, -53322.88, -187500.02, 187500.00, -187500.02, -187500.02, -187500.02, 0.00, 0.00, 0.00
179, -187500.02, -187500.02, -52717.75, -187500.02, 187500.00, -187500.02, -187500.02, -187500.02, 0.00, 0.00, 0.00
180, -187500.02, -187500.02, -55228.54, -187500.02, 187500.00, -187500.02, -187500.02, -187500.02, 0.00, 0.00, 0.00
181, -187500.02, -187500.02, -56011.77, -187500.02, 187500.00, -187500.02, -187500.02, -187500.02, 0.00, 0.00, 0.00
182, -187500.02, -187500.02, -53778.77, -187500.02, 187500.00, -187500.02, -187500.02, -187500.02, 0.00, 0.00, 0.00
183, -187500.02, -187500.02, -52529.14, -187500.02, 187500.00, -187500.02, -187500.02, -187500.02, 0.00, 0.00, 0.00
184, -187500.02, -187500.02, -54804.40, -187500.02, 187500.00, -187500.02, -187500.02, -187500.02, 0.00, 0.00, 0.00
185, -187500.02, -187500.02, -56151.20, -187500.02, 187500.00, -187500.02, -187500.02, -187500.02, 0.00, 0.00, 0.00
186, -187500.02, -187500.02, -54306.42, -187500.02, 187500.00, -187500.02, -187500.02, -187500.02, 0.00, 0.00, 0.00
187, -187500.02, -187500.02, -52544.39, -187500.02, 187500.00, -187500.02, -187500.02, -187500.02, -0.03, 0.97, 0.18
188, -187500.02, -187500.02, -54389.88, -187500.02, 187500.00, -187500.02, -187500.02, -187500.02, 0.00, 0.00, 0.00
189, -187500.02, -187500.02, -56190.76, -187500.02, 187500.00, -187500.02, -187500.02, -187500.02, 0.00, 0.00, 0.00
190, -187500.02, -187500.02, -54785.04, -187500.02, 187500.00, -187500.02, -187500.02, -187500.02, 0.00, 0.00, 0.00
191, -187500.02, -187500.02, -52586.66, -187500.02, 187500.00, -187500.02, -187500.02, -187500.02, 0.00, 0.00, 0.00
192, -187500.02, -187500.02, -53878.10, -187500.02, 187500.00, -187500.02, -187500.02, -187500.02, 0.00, 0.00, 0.00
193, -187500.02, -187500.02, -56108.11, -187500.02, 187500.00, -187500.02, -187500.02, -187500.02, 0.00, 0.00, 0.00
194, -187500.02, -187500.02, -55240.05, -187500.02, 187500.00, -187500.02, -187500.02, -187500.02, 0.00, 0.00, 0.00
195, -187500.02, -187500.02, -52797.70, -187500.02, 187500.00, -187500.02, -187500.02, -187500.02, 0.00, 0.00, 0.00
196, -187500.02, -187500.02, -53421.98, -187500.02, 187500.00, -187500.02, -187500.02, -187500.02, 0.00, 0.00, 0.00
197, -187500.02, -187500.02, -55885.13, -187500.02, 187500.00, -187500.02, -187500.02, -187500.02, -0.03, 0.97, 0.17
198, -187500.02, -187500.02, -55617.08, -187500.02, 187500.00, -187500.02, -187500.02, -187500.02, 0.00, 0.00, 0.00
199, -187500.02, -187500.02, -53094.51, -187500.02, 187500.00, -187500.02, -187500.02, -187500.02, 0.00, 0.00, 0.00
200, -187500.02, -187500.02, -53026.43, -187500.02, 187500.00, -187500.02, -187500.02, -187500.02, 0.00, 0.00, 0.00
201, -187500.02, -187500.02, -55596.61, -187500.02, 187500.00, -187500.02, -187500.02, -187500.02, 0.00, 0.00, 0.00
202, -187500.02, -187500.02, -55902.00, -187500.02, 187500.00, -187500.02, -187500.02, -187500.02, 0.00, 0.00, 0.00
203, -187500.02, -187500.02, -53502.83, -187500.02, 187500.00, -187500.02, -187500.02, -187500.02, 0.00, 0.00, 0.00
204, -187500.02, -187500.02, -52718.29, -187500.02, 187500.00, -187500.02, -187500.02, -187500.02, 0.00, 0.00, 0.00
205, -187500.02, -187500.02, -55177.40, -187500.02, 187500.00, -187500.02, -187500.02, -187500.02, 0.00, 0.00, 0.00
206, -187500.02, -187500.02, -56117.14, -187500.02, 187500.00, -187500.02, -187500.02, -187500.02, -0.03, 0.97, 0.16
207, -187500.02, -187500.02, -53981.34, -187500.02, 187500.00, -187500.02, -187500.02, -187500.02, 0.00, 0.00, 0.00
208, -187500.02, -187500.02, -52586.50, -187500.02, 187500.00, -187500.02, -187500.02, -187500.02, 0.00, 0.00, 0.00
209, -187500.02, -187500.02, -54783.77, -187500.02, 187500.00, -187500.02, -187500.02, -187500.02, 0.00, 0.00, 0.00
210, -187500.02, -187500.02, -56268.14, -187500.02, 187500.00, -187500.02, -187500.02, -187500.02, 0.00, 0.00, 0.00
211, -187500.02, -187500.02, -54493.91, -187500.02, 187500.00, -187500.02, -187500.02, -187500.02, 0.00, 0.00, 0.00
212, -187500.02, -187500.02, -52555.45, -187500.02, 187500.00, -187500.02, -187500.02, -187500.02, 0.00, 0.00, 0.00
213, -187500.02, -187500.02, -54274.30, -187500.02, 187500.00, -187500.02, -187500.02, -187500.02, 0.00, 0.00, 0.00
214, -187500.02, -187500.02, -56247.20, -187500.02, 187500.00, -187500.02, -187500.02, -187500.02, 0.00, 0.00, 0.00
215, -187500.02, -187500.02, -54991.93, -187500.02, 187500.00, -187500.02, -187500.02, -187500.02, 0.00, 0.00, 0.00
216, -187500.02, -187500.02, -52713.30, -187500.02, 187500.00, -187500.02, -187500.02, -187500.02, -0.03, 0.97, 0.16
217, -187500.02, -187500.02, -53860.01, -187500.02, 187500.00, -187500.02, -187500.02, -187500.02, 0.00, 0.00, 0.00
218, -187500.02, -187500.02, -56175.65, -187500.02, 187500.00, -187500.02, -187500.02, -187500.02, 0.00, 0.00, 0.00
219, -187500.02, -187500.02, -55459.79, -187500.02, 187500.00, -187500.02, -187500.02, -187500.02, 0.00, 0.00, 0.00
220, -187500.02, -187500.02, -52977.45, -187500.02, 187500.00, -187500.02, -187500.02, -187500.02, 0.00, 0.00, 0.00
221, -187500.02, -187500.02, -53429.52, -187500.02, 187500.00, -187500.02, -187500.02, -187500.02, 0.00, 0.00, 0.00
222, -187500.02, -187500.02, -55947.24, -187500.02, 187500.00, -187500.02, -187500.02, -187500.02, 0.00, 0.00, 0.00
223, -187500.02, -187500.02, -55844.13, -187500.02, 187500.00, -187500.02, -187500.02, -187500.02, 0.00, 0.00, 0.00
224, -187500.02, -187500.02, -53375.00, -187500.02, 187500.00, -187500.02, -187500.02, -187500.02, 0.00, 0.00, 0.00
225, -187500.02, -187500.02, -53083.87, -187500.02, 187500.00, -187500.02, -187500.02, -187500.02, 0.00, 0.00, 0.00
226, -187500.02, -187500.02, -55617.64, -187500.02, 187500.00, -187500.02, -187500.02, -187500.02, -0.03, 0.97, 0.16
227, -187500.02, -187500.02, -56152.16, -187500.02, 187500.00, -187500.02, -187500.02, -187500.02, 0.00, 0.00, 0.00
228, -187500.02, -187500.02, -53807.96, -187500.02, 187500.00, -187500.02, -187500.02, -187500.02, 0.00, 0.00, 0.00
229, -187500.02, -187500.02, -52871.75, -187500.02, 187500.00, -187500.02, -187500.02, -187500.02, 0.00, 0.00, 0.00
230, -187500.02, -187500.02, -55243.14, -187500.02, 187500.00, -187500.02, -187500.02, -187500.02, 0.00, 0.00, 0.00
231, -187500.02, -187500.02, -56301.85, -187500.02, 187500.00, -187500.02, -187500.02, -187500.02, 0.00, 0.00, 0.00
232, -187500.02, -187500.02, -54250.77, -187500.02, 187500.00, -187500.02, -187500.02, -187500.02, 0.00, 0.00, 0.00
233, -187500.02, -187500.02, -52706.44, -187500.02, 187500.00, -187500.02, -187500.02, -187500.02, 0.00, 0.00, 0.00
234, -187500.02, -187500.02, -54766.93, -187500.02, 187500.00, -187500.02, -187500.02, -187500.02, 0.00, 0.00, 0.00
235, -187500.02, -187500.02, -56370.00, -187500.02, 187500.00, -187500.02, -187500.02, -187500.02, 0.00, 0.00, 0.00
236, -187500.02, -187500.02, -54756.16, -187500.02, 187500.00, -187500.02, -187500.02, -187500.02, -0.03, 0.97, 0.16
237, -187500.02, -187500.02, -52732.43, -187500.02, 187500.00, -187500.02, -187500.02, -187500.02, 0.00, 0.00, 0.00
238, -187500.02, -187500.02, -54300.92, -187500.02, 187500.00, -187500.02, -187500.02, -187500.02, 0.00, 0.00, 0.00
239, -187500.02, -187500.02, -56366.45, -187500.02, 187500.00, -187500.02, -187500.02, -187500.02, 0.00, 0.00, 0.00
240, -187500.02, -187500.02, -55234.98, -187500.02, 187500.00, -187500.02, -187500.02, -187500.02, 0.00, 0.00, 0.00
241, -187500.02, -187500.02, -52909.01, -187500.02, 187500.00, -187500.02, -187500.02, -187500.02, 0.00, 0.00, 0.00
242, -187500.02, -187500.02, -53866.34, -187500.02, 187500.00, -187500.02, -187500.02, -187500.02, 0.00, 0.00, 0.00
243, -187500.02, -187500.02, -56258.45, -187500.02, 187500.00, -187500.02, -187500.02, -187500.02, 0.00, 0.00, 0.00
244, -187500.02, -187500.02, -55711.27, -187500.02, 187500.00, -187500.02, -187500.02, -187500.02, 0.00, 0.00, 0.00
245, -187500.02, -187500.02, -53239.42, -187500.02, 187500.00, -187500.02, -187500.02, -187500.02, 0.00, 0.00, 0.00
246, -187500.02, -187500.02, -53494.85, -187500.02, 187500.00, -187500.02, -187500.02, -187500.02, -0.03, 0.97, 0.16
247, -187500.02, -187500.02, -56026.57, -187500.02, 187500.00, -187500.02, -187500.02, -187500.02, 0.00, 0.00, 0.00
248, -187500.02, -187500.02, -56096.93, -187500.02, 187500.00, -187500.02, -187500.02, -187500.02, 0.00, 0.00, 0.00
249, -187500.02, -187500.02, -53658.56, -187500.02, 187500.00, -187500.02, -187500.02, -187500.02, 0.00, 0.00, 0.00
250, -187500.02, -187500.02, -53229.89, -187500.02, 187500.00, -187500.02, -187500.02, -187500.02, 0.00, 0.00, 0.00
251, -187500.02, -187500.02, -55746.81, -187500.02, 187500.00, -187500.02, -187500.02, -187500.02, 0.00, 0.00, 0.00
252, -187500.02, -187500.02, -56431.56, -187500.02, 187500.00, -187500.02, -187500.02, -187500.02, 0.00, 0.00, 0.00
253, -187500.02, -187500.02, -54185.52, -187500.02, 187500.00, -187500.02, -187500.02, -187500.02, 0.00, 0.00, 0.00
254, -187500.02, -187500.02, -53055.55, -187500.02, 187500.00, -187500.02, -187500.02, -187500.02, 0.00, 0.00, 0.00
255, -187500.02, -187500.02, -55376.63, -187500.02, 187500.00, -187500.02, -187500.02, -187500.02, 0.00, 0.00, 0.00
0, -187500.02, -187500.02, -56607.15, -187500.02, 187500.00, -187500.02, -187500.02, -187500.02, -0.03, 0.98, 0.16
1, -187500.02, -187500.02, -54691.10, -187500.02, 187500.00, -187500.02, -187500.02, -187500.02, 0.00, 0.00, 0.00
2, -187500.02, -187500.02, -53031.95, -187500.02, 187500.00, -187500.02, -187500.02, -187500.02, 0.00, 0.00, 0.00
3, -187500.02, -187500.02, -54941.17, -187500.02, 187500.00, -187500.02, -187500.02, -187500.02, 0.00, 0.00, 0.00
4, -187500.02, -187500.02, -56680.82, -187500.02, 187500.00, -187500.02, -187500.02, -187500.02, 0.00, 0.00, 0.00
5, -187500.02, -187500.02, -55193.63, -187500.02, 187500.00, -187500.02, -187500.02, -187500.02, 0.00, 0.00, 0.00
6, -187500.02, -187500.02, -53076.83, -187500.02, 187500.00, -187500.02, -187500.02, -187500.02, 0.00, 0.00, 0.00
7, -187500.02, -187500.02, -54489.35, -187500.02, 187500.00, -187500.02, -187500.02, -187500.02, 0.00, 0.00, 0.00
8, -187500.02, -187500.02, -56611.25, -187500.02, 187500.00, -187500.02, -187500.02, -187500.02, 0.00, 0.00, 0.00
9, -187500.02, -187500.02, -55623.19, -187500.02, 187500.00, -187500.02, -187500.02, -187500.02, 0.00, 0.00, 0.00
10, -187500.02, -187500.02, -53244.09, -187500.02, 187500.00, -187500.02, -187500.02, -187500.02, -0.04, 0.98, 0.16
11, -187500.02, -187500.02, -53996.58, -187500.02, 187500.00, -187500.02, -187500.02, -187500.02, 0.00, 0.00, 0.00
12, -187500.02, -187500.02, -56440.77, -187500.02, 187500.00, -187500.02, -187500.02, -187500.02, 0.00, 0.00, 0.00
13, -187500.02, -187500.02, -56068.23, -187500.02, 187500.00, -187500.02, -187500.02, -187500.02, 0.00, 0.00, 0.00
14, -187500.02, -187500.02, -53577.22, -187500.02, 187500.00, -187500.02, -187500.02, -187500.02, 0.00, 0.00, 0.00
15, -187500.02, -187500.02, -53625.72, -187500.02, 187500.00, -187500.02, -187500.02, -187500.02, 0.00, 0.00, 0.00
16, -187500.02, -187500.02, -56174.07, -187500.02, 187500.00, -187500.02, -187500.02, -187500.02, 0.00, 0.00, 0.00
17, -187500.02, -187500.02, -56372.04, -187500.02, 187500.00, -187500.02, -187500.02, -187500.02, 0.00, 0.00, 0.00
18, -187500.02, -187500.02, -53962.56, -187500.02, 187500.00, -187500.02, -187500.02, -187500.02, 0.00, 0.00, 0.00
19, -187500.02, -187500.02, -53338.95, -187500.02, 187500.00, -187500.02, -187500.02, -187500.02, 0.00, 0.00, 0.00
20, -187500.02, -187500.02, -55823.37, -187500.02, 187500.00, -187500.02, -187500.02, -187500.02, -0.04, 0.97, 0.15
21, -187500.02, -187500.02, -56638.45, -187500.02, 187500.00, -187500.02, -187500.02, -187500.02, 0.00, 0.00, 0.00
22, -187500.02, -187500.02, -54460.85, -187500.02, 187500.00, -187500.02, -187500.02, -187500.02, 0.00, 0.00, 0.00
23, -187500.02, -187500.02, -53177.61, -187500.02, 187500.00, -187500.02, -187500.02, -187500.02, 0.00, 0.00, 0.00
24, -187500.02, -187500.02, -55383.06, -187500.02, 187500.00, -187500.02, -187500.02, -187500.02, 0.00, 0.00, 0.00
25, -187500.02, -187500.02, -56789.28, -187500.02, 187500.00, -187500.02, -187500.02, -187500.02, 0.00, 0.00, 0.00
26, -187500.02, -187500.02, -54988.93, -187500.02, 187500.00, -187500.02, -187500.02, -187500.02, 0.00, 0.00, 0.00
27, -187500.02, -187500.02, -53190.18, -187500.02, 187500.00, -187500.02, -187500.02, -187500.02, 0.00, 0.00, 0.00
28, -187500.02, -187500.02, -54977.54, -187500.02, 187500.00, -187500.02, -187500.02, -187500.02, 0.00, 0.00, 0.00
29, -187500.02, -187500.02, -56830.14, -187500.02, 187500.00, -187500.02, -187500.02, -187500.02, 0.00, 0.00, 0.00
30, -187500.02, -187500.02, -55500.99, -187500.02, 187500.00, -187500.02, -187500.02, -187500.02, -0.04, 0.97, 0.16
31, -187500.02, -187500.02, -53357.79, -187500.02, 187500.00, -187500.02, -187500.02, -187500.02, 0.00, 0.00, 0.00
32, -187500.02, -187500.02, -54601.87, -187500.02, 187500.00, -187500.02, -187500.02, -187500.02, 0.00, 0.00, 0.00
33, -187500.02, -187500.02, -56880.49, -187500.02, 187500.00, -187500.02, -187500.02, -187500.02, 0.00, 0.00, 0.00
34, -187500.02, -187500.02, -56103.70, -187500.02, 187500.00, -187500.02, -187500.02, -187500.02, 0.00, 0.00, 0.00
35, -187500.02, -187500.02, -53728.94, -187500.02, 187500.00, -187500.02, -187500.02, -187500.02, 0.00, 0.00, 0.00
36, -187500.02, -187500.02, -54306.38, -187500.02, 187500.00, -187500.02, -187500.02, -187500.02, 0.00, 0.00, 0.00
37, -187500.02, -187500.02, -56802.29, -187500.02, 187500.00, -187500.02, -187500.02, -187500.02, 0.00, 0.00, 0.00
38, -187500.02, -187500.02, -56612.83, -187500.02, 187500.00, -187500.02, -187500.02, -187500.02, 0.00, 0.00, 0.00
39, -187500.02, -187500.02, -54189.81, -187500.02, 187500.00, -187500.02, -187500.02, -187500.02, -0.04, 0.97, 0.16
40, -187500.02, -187500.02, -54092.36, -187500.02, 187500.00, -187500.02, -187500.02, -187500.02, 0.00, 0.00, 0.00
41, -187500.02, -187500.02, -56639.45, -187500.02, 187500.00, -187500.02, -187500.02, -187500.02, 0.00, 0.00, 0.00
42, -187500.02, -187500.02, -57049.09, -187500.02, 187500.00, -187500.02, -187500.02, -187500.02, 0.00, 0.00, 0.00
43, -187500.02, -187500.02, -54746.06, -187500.02, 187500.00, -187500.02, -187500.02, -187500.02, 0.00, 0.00, 0.00
44, -187500.02, -187500.02, -53984.65, -187500.02, 187500.00, -187500.02, -187500.02, -187500.02, 0.00, 0.00, 0.00
45, -187500.02, -187500.02, -56389.25, -187500.02, 187500.00, -187500.02, -187500.02, -187500.02, 0.00, 0.00, 0.00
46, -187500.02, -187500.02, -57372.32, -187500.02, 187500.00, -187500.02, -187500.02, -187500.02, 0.00, 0.00, 0.00
47, -187500.02, -187500.02, -55323.43, -187500.02, 187500.00, -187500.02, -187500.02, -187500.02, 0.00, 0.00, 0.00
48, -187500.02, -187500.02, -53930.15, -187500.02, 187500.00, -187500.02, -187500.02, -187500.02, 0.00, 0.00, 0.00
49, -187500.02, -187500.02, -56062.46, -187500.02, 187500.00, -187500.02, -187500.02, -187500.02, -0.05, 0.97, 0.17
50, -187500.02, -187500.02, -57549.68, -187500.02, 187500.00, -187500.02, -187500.02, -187500.02, 0.00, 0.00, 0.00
51, -187500.02, -187500.02, -55877.04, -187500.02, 187500.00, -187500.02, -187500.02, -187500.02, 0.00, 0.00, 0.00
52, -187500.02, -187500.02, -54005.21, -187500.02, 187500.00, -187500.02, -187500.02, -187500.02, 0.00, 0.00, 0.00
53, -187500.02, -187500.02, -55669.95, -187500.02, 187500.00, -187500.02, -187500.02, -187500.02, 0.00, 0.00, 0.00
54, -187500.02, -187500.02, -57614.84, -187500.02, 187500.00, -187500.02, -187500.02, -187500.02, 0.00, 0.00, 0.00
55, -187500.02, -187500.02, -56415.96, -187500.02, 187500.00, -187500.02, -187500.02, -187500.02, 0.00, 0.00, 0.00
56, -187500.02, -187500.02, -54195.80, -187500.02, 187500.00, -187500.02, -187500.02, -187500.02, 0.00, 0.00, 0.00
57, -187500.02, -187500.02, -55240.48, -187500.02, 187500.00, -187500.02, -187500.02, -187500.02, 0.00, 0.00, 0.00
58, -187500.02, -187500.02, -57501.11, -187500.02, 187500.00, -187500.02, -187500.02, -187500.02, 0.00, 0.00, 0.00
59, -187500.02, -187500.02, -56842.52, -187500.02, 187500.00, -187500.02, -187500.02, -187500.02, -0.04, 0.97, 0.17
60, -187500.02, -187500.02, -54428.42, -187500.02, 187500.00, -187500.02, -187500.02, -187500.02, 0.00, 0.00, 0.00
61, -187500.02, -187500.02, -54808.29, -187500.02, 187500.00, -187500.02, -187500.02, -187500.02, 0.00, 0.00, 0.00
62, -187500.02, -187500.02, -57278.76, -187500.02, 187500.00, -187500.02, -187500.02, -187500.02, 0.00, 0.00, 0.00
63, -187500.02, -187500.02, -57204.01, -187500.02, 187500.00, -187500.02, -187500.02, -187500.02, 0.00, 0.00, 0.00
64, -187500.02, -187500.02, -54811.21, -187500.02, 187500.00, -187500.02, -187500.02, -187500.02, 0.00, 0.00, 0.00
65, -187500.02, -187500.02, -54513.27, -187500.02, 187500.00, -187500.02, -187500.02, -187500.02, 0.00, 0.00, 0.00
66, -187500.02, -187500.02, -56939.21, -187500.02, 187500.00, -187500.02, -187500.02, -187500.02, 0.00, 0.00, 0.00
67, -187500.02, -187500.02, -57483.48, -187500.02, 187500.00, -187500.02, -187500.02, -187500.02, 0.00, 0.00, 0.00
68, -187500.02, -187500.02, -55255.28, -187500.02, 187500.00, -187500.02, -187500.02, -187500.02, 0.00, 0.00, 0.00
69, -187500.02, -187500.02, -54326.41, -187500.02, 187500.00, -187500.02, -187500.02, -187500.02, -0.04, 0.97, 0.17
70, -187500.02, -187500.02, -56628.37, -187500.02, 187500.00, -187500.02, -187500.02, -187500.02, 0.00, 0.00, 0.00
71, -187500.02, -187500.02, -57740.90, -187500.02, 187500.00, -187500.02, -187500.02, -187500.02, 0.00, 0.00, 0.00
72, -187500.02, -187500.02, -55798.04, -187500.02, 187500.00, -187500.02, -187500.02, -187500.02, 0.00, 0.00, 0.00
73, -187500.02, -187500.02, -54289.39, -187500.02, 187500.00, -187500.02, -187500.02, -187500.02, 0.00, 0.00, 0.00
74, -187500.02, -187500.02, -56247.29, -187500.02, 187500.00, -187500.02, -187500.02, -187500.02, 0.00, 0.00, 0.00
75, -187500.02, -187500.02, -57867.50, -187500.02, 187500.00, -187500.02, -187500.02, -187500.02, 0.00, 0.00, 0.00
76, -187500.02, -187500.02, -56323.96, -187500.02, 187500.00, -187500.02, -187500.02, -187500.02, 0.00, 0.00, 0.00
77, -187500.02, -187500.02, -54377.03, -187500.02, 187500.00, -187500.02, -187500.02, -187500.02, 0.00, 0.00, 0.00
78, -187500.02, -187500.02, -55850.91, -187500.02, 187500.00, -187500.02, -187500.02, -187500.02, 0.00, 0.00, 0.00
79, -187500.02, -187500.02, -57874.97, -187500.02, 187500.00, -187500.02, -187500.02, -187500.02, -0.05, 0.97, 0.17
80, -187500.02, -187500.02, -56804.74, -187500.02, 187500.00, -187500.02, -187500.02, -187500.02, 0.00, 0.00, 0.00
81, -187500.02, -187500.02, -54554.50, -187500.02, 187500.00, -187500.02, -187500.02, -187500.02, 0.00, 0.00, 0.00
82, -187500.02, -187500.02, -55445.20, -187500.02, 187500.00, -187500.02, -187500.02, -187500.02, 0.00, 0.00, 0.00
83, -187500.02, -187500.02, -57757.49, -187500.02, 187500.00, -187500.02, -187500.02, -187500.02, 0.00, 0.00, 0.00
84, -187500.02, -187500.02, -57273.77, -187500.02, 187500.00, -187500.02, -187500.02, -187500.02, 0.00, 0.00, 0.00
85, -187500.02, -187500.02, -54888.30, -187500.02, 187500.00, -187500.02, -187500.02, -187500.02, 0.00, 0.00, 0.00
86, -187500.02, -187500.02, -55069.58, -187500.02, 187500.00, -187500.02, -187500.02, -187500.02, 0.00, 0.00, 0.00
87, -187500.02, -187500.02, -57525.88, -187500.02, 187500.00, -187500.02, -187500.02, -187500.02, 0.00, 0.00, 0.00
88, -187500.02, -187500.02, -57599.50, -187500.02, 187500.00, -187500.02, -187500.02, -187500.02, 0.00, 0.00, 0.00
89, -187500.02, -187500.02, -55212.36, -187500.02, 187500.00, -187500.02, -187500.02, -187500.02, -0.05, 0.96, 0.17
90, -187500.02, -187500.02, -54757.46, -187500.02, 187500.00, -187500.02, -187500.02, -187500.02, 0.00, 0.00, 0.00
91, -187500.02, -187500.02, -57195.30, -187500.02, 187500.00, -187500.02, -187500.02, -187500.02, 0.00, 0.00, 0.00
92, -187500.02, -187500.02, -57857.60, -187500.02, 187500.00, -187500.02, -187500.02, -187500.02, 0.00, 0.00, 0.00
93, -187500.02, -187500.02, -55665.99, -187500.02, 187500.00, -187500.02, -187500.02, -187500.02, 0.00, 0.00, 0.00
94, -187500.02, -187500.02, -54554.71, -187500.02, 187500.00, -187500.02, -187500.02, -187500.02, 0.00, 0.00, 0.00
95, -187500.02, -187500.02, -56788.27, -187500.02, 187500.00, -187500.02, -187500.02, -187500.02, 0.00, 0.00, 0.00
96, -187500.02, -187500.02, -58015.67, -187500.02, 187500.00, -187500.02, -187500.02, -187500.02, 0.00, 0.00, 0.00
97, -187500.02, -187500.02, -56142.06, -187500.02, 187500.00, -187500.02, -187500.02, -187500.02, 0.00, 0.00, 0.00
98, -187500.02, -187500.02, -54490.09, -187500.02, 187500.00, -187500.02, -187500.02, -187500.02, 0.00, 0.00, 0.00
99, -187500.02, -187500.02, -56347.05, -187500.02, 187500.00, -187500.02, -187500.02, -187500.02, -0.05, 0.97, 0.17
100, -187500.02, -187500.02, -58100.47, -187500.02, 187500.00, -187500.02, -187500.02, -187500.02, 0.00, 0.00, 0.00
101, -187500.02, -187500.02, -56676.27, -187500.02, 187500.00, -187500.02, -187500.02, -187500.02, 0.00, 0.00, 0.00
102, -187500.02, -187500.02, -54633.47, -187500.02, 187500.00, -187500.02, -187500.02, -187500.02, 0.00, 0.00, 0.00
103, -187500.02, -187500.02, -55949.16, -187500.02, 187500.00, -187500.02, -187500.02, -187500.02, 0.00, 0.00, 0.00
104, -187500.02, -187500.02, -58075.39, -187500.02, 187500.00, -187500.02, -187500.02, -187500.02, 0.00, 0.00, 0.00
105, -187500.02, -187500.02, -57159.42, -187500.02, 187500.00, -187500.02, -187500.02, -187500.02, 0.00, 0.00, 0.00
106, -187500.02, -187500.02, -54850.11, -187500.02, 187500.00, -187500.02, -187500.02, -187500.02, 0.00, 0.00, 0.00
107, -187500.02, -187500.02, -55527.90, -187500.02, 187500.00, -187500.02, -187500.02, -187500.02, 0.00, 0.00, 0.00
108, -187500.02, -187500.02, -57892.45, -187500.02, 187500.00, -187500.02, -187500.02, -187500.02, 0.00, 0.00, 0.00
109, -187500.02, -187500.02, -57576.06, -187500.02, 187500.00, -187500.02, -187500.02, -187500.02, -0.05, 0.97, 0.16
110, -187500.02, -187500.02, -55203.06, -187500.02, 187500.00, -187500.02, -187500.02, -187500.02, 0.00, 0.00, 0.00
111, -187500.02, -187500.02, -55213.14, -187500.02, 187500.00, -187500.02, -187500.02, -187500.02, 0.00, 0.00, 0.00
112, -187500.02, -187500.02, -57641.19, -187500.02, 187500.00, -187500.02, -187500.02, -187500.02, 0.00, 0.00, 0.00
113, -187500.02, -187500.02, -57869.04, -187500.02, 187500.00, -187500.02, -187500.02, -187500.02, 0.00, 0.00, 0.00
114, -187500.02, -187500.02, -55564.18, -187500.02, 187500.00, -187500.02, -187500.02, -187500.02, 0.00, 0.00, 0.00
115, -187500.02, -187500.02, -54916.96, -187500.02, 187500.00, -187500.02, -187500.02, -187500.02, 0.00, 0.00, 0.00
116, -187500.02, -187500.02, -57278.55, -187500.02, 187500.00, -187500.02, -187500.02, -187500.02, 0.00, 0.00, 0.00
117, -187500.02, -187500.02, -58100.32, -187500.02, 187500.00, -187500.02, -187500.02, -187500.02, 0.00, 0.00, 0.00
118, -187500.02, -187500.02, -55978.04, -187500.02, 187500.00, -187500.02, -187500.02, -187500.02, 0.00, 0.00, 0.00
119, -187500.02, -187500.02, -54720.96, -187500.02, 187500.00, -187500.02, -187500.02, -187500.02, -0.05, 0.98, 0.17
120, -187500.02, -187500.02, -56886.51, -187500.02, 187500.00, -187500.02, -187500.02, -187500.02, 0.00, 0.00, 0.00
121, -187500.02, -187500.02, -58271.46, -187500.02, 187500.00, -187500.02, -187500.02, -187500.02, 0.00, 0.00, 0.00
122, -187500.02, -187500.02, -56500.67, -187500.02, 187500.00, -187500.02, -187500.02, -187500.02, 0.00, 0.00, 0.00
123, -187500.02, -187500.02, -54715.32, -187500.02, 187500.00, -187500.02, -187500.02, -187500.02, 0.00, 0.00, 0.00
124, -187500.02, -187500.02, -56395.08, -187500.02, 187500.00, -187500.02, -187500.02, -187500.02, 0.00, 0.00, 0.00
125, -187500.02, -187500.02, -58223.16, -187500.02, 187500.00, -187500.02, -187500.02, -187500.02, 0.00, 0.00, 0.00
126, -187500.02, -187500.02, -56952.15, -187500.02, 187500.00, -187500.02, -187500.02, -187500.02, 0.00, 0.00, 0.00
127, -187500.02, -187500.02, -54803.73, -187500.02, 187500.00, -187500.02, -187500.02, -187500.02, 0.00, 0.00, 0.00
128, -187500.02, -187500.02, -55946.57, -187500.02, 187500.00, -187500.02, -187500.02, -187500.02, -0.06, 0.97, 0.17
129, -187500.02, -187500.02, -58124.48, -187500.02, 187500.00, -187500.02, -187500.02, -187500.02, 0.00, 0.00, 0.00
130, -187500.02, -187500.02, -57346.28, -187500.02, 187500.00, -187500.02, -187500.02, -187500.02, 0.00, 0.00, 0.00
131, -187500.02, -187500.02, -54979.68, -187500.02, 187500.00, -187500.02, -187500.02, -187500.02, 0.00, 0.00, 0.00
132, -187500.02, -187500.02, -55459.53, -187500.02, 187500.00, -187500.02, -187500.02, -187500.02, 0.00, 0.00, 0.00
133, -187500.02, -187500.02, -57845.33, -187500.02, 187500.00, -187500.02, -187500.02, -187500.02, 0.00, 0.00, 0.00
134, -187500.02, -187500.02, -57685.02, -187500.02, 187500.00, -187500.02, -187500.02, -187500.02, 0.00, 0.00, 0.00
135, -187500.02, -187500.02, -55290.88, -187500.02, 187500.00, -187500.02, -187500.02, -187500.02, 0.00, 0.00, 0.00
136, -187500.02, -187500.02, -55123.85, -187500.02, 187500.00, -187500.02, -187500.02, -187500.02, 0.00, 0.00, 0.00
137, -187500.02, -187500.02, -57553.59, -187500.02, 187500.00, -187500.02, -187500.02, -187500.02, 0.00, 0.00, 0.00
138, -187500.02, -187500.02, -57961.58, -187500.02, 187500.00, -187500.02, -187500.02, -187500.02, -0.06, 0.97, 0.17
139, -187500.02, -187500.02, -55693.50, -187500.02, 187500.00, -187500.02, -187500.02, -187500.02, 0.00, 0.00, 0.00
140, -187500.02, -187500.02, -54861.84, -187500.02, 187500.00, -187500.02, -187500.02, -187500.02, 0.00, 0.00, 0.00
141, -187500.02, -187500.02, -57177.50, -187500.02, 187500.00, -187500.02, -187500.02, -187500.02, 0.00, 0.00, 0.00
142, -187500.02, -187500.02, -58151.73, -187500.02, 187500.00, -187500.02, -187500.02, -187500.02, 0.00, 0.00, 0.00
143, -187500.02, -187500.02, -56146.13, -187500.02, 187500.00, -187500.02, -187500.02, -187500.02, 0.00, 0.00, 0.00
144, -187500.02, -187500.02, -54726.90, -187500.02, 187500.00, -187500.02, -187500.02, -187500.02, 0.00, 0.00, 0.00
145, -187500.02, -187500.02, -56753.60, -187500.02, 187500.00, -187500.02, -187500.02, -187500.02, 0.00, 0.00, 0.00
146, -187500.02, -187500.02, -58244.78, -187500.02, 187500.00, -187500.02, -187500.02, -187500.02, 0.00, 0.00, 0.00
147, -187500.02, -187500.02, -56577.89, -187500.02, 187500.00, -187500.02, -187500.02, -187500.02, 0.00, 0.00, 0.00
148, -187500.02, -187500.02, -54668.01, -187500.02, 187500.00, -187500.02, -187500.02, -187500.02, -0.06, 0.97, 0.17
149, -187500.02, -187500.02, -56239.09, -187500.02, 187500.00, -187500.02, -187500.02, -187500.02, 0.00, 0.00, 0.00
150, -187500.02, -187500.02, -58180.96, -187500.02, 187500.00, -187500.02, -187500.02, -187500.02, 0.00, 0.00, 0.00
151, -187500.02, -187500.02, -57036.15, -187500.02, 187500.00, -187500.02, -187500.02, -187500.02, 0.00, 0.00, 0.00
152, -187500.02, -187500.02, -54825.68, -187500.02, 187500.00, -187500.02, -187500.02, -187500.02, 0.00, 0.00, 0.00
153, -187500.02, -187500.02, -55783.52, -187500.02, 187500.00, -187500.02, -187500.02, -187500.02, 0.00, 0.00, 0.00
154, -187500.02, -187500.02, -58025.13, -187500.02, 187500.00, -187500.02, -187500.02, -187500.02, 0.00, 0.00, 0.00
155, -187500.02, -187500.02, -57422.50, -187500.02, 187500.00, -187500.02, -187500.02, -187500.02, 0.00, 0.00, 0.00
156, -187500.02, -187500.02, -55064.75, -187500.02, 187500.00, -187500.02, -187500.02, -187500.02, 0.00, 0.00, 0.00
157, -187500.02, -187500.02, -55375.71, -187500.02, 187500.00, -187500.02, -187500.02, -187500.02, 0.00, 0.00, 0.00
158, -187500.02, -187500.02, -57799.89, -187500.02, 187500.00, -187500.02, -187500.02, -187500.02, -0.05, 0.96, 0.17
159, -187500.02, -187500.02, -57792.82, -187500.02, 187500.00, -187500.02, -187500.02, -187500.02, 0.00, 0.00, 0.00
160, -187500.02, -187500.02, -55415.25, -187500.02, 187500.00, -187500.02, -187500.02, -187500.02, 0.00, 0.00, 0.00
161, -187500.02, -187500.02, -55059.30, -187500.02, 187500.00, -187500.02, -187500.02, -187500.02, 0.00, 0.00, 0.00
162, -187500.02, -187500.02, -57477.02, -187500.02, 187500.00, -187500.02, -187500.02, -187500.02, 0.00, 0.00, 0.00
163, -187500.02, -187500.02, -58042.89, -187500.02, 187500.00, -187500.02, -187500.02, -187500.02, 0.00, 0.00, 0.00
164, -187500.02, -187500.02, -55823.30, -187500.02, 187500.00, -187500.02, -187500.02, -187500.02, 0.00, 0.00, 0.00
165, -187500.02, -187500.02, -54847.60, -187500.02, 187500.00, -187500.02, -187500.02, -187500.02, 0.00, 0.00, 0.00
166, -187500.02, -187500.02, -57100.93, -187500.02, 187500.00, -187500.02, -187500.02, -187500.02, 0.00, 0.00, 0.00
167, -187500.02, -187500.02, -58207.36, -187500.02, 187500.00, -187500.02, -187500.02, -187500.02, 0.00, 0.00, 0.00
168, -187500.02, -187500.02, -56276.48, -187500.02, 187500.00, -187500.02, -187500.02, -187500.02, -0.04, 0.97, 0.17
169, -187500.02, -187500.02, -54731.46, -187500.02, 187500.00, -187500.02, -187500.02, -187500.02, 0.00, 0.00, 0.00
170, -187500.02, -187500.02, -56658.07, -187500.02, 187500.00, -187500.02, -187500.02, -187500.02, 0.00, 0.00, 0.00
171, -187500.02, -187500.02, -58308.66, -187500.02, 187500.00, -187500.02, -187500.02, -187500.02, 0.00, 0.00, 0.00
172, -187500.02, -187500.02, -56807.05, -187500.02, 187500.00, -187500.02, -187500.02, -187500.02, 0.00, 0.00, 0.00
173, -187500.02, -187500.02, -54840.99, -187500.02, 187500.00, -187500.02, -187500.02, -187500.02, 0.00, 0.00, 0.00
174, -187500.02, -187500.02, -56268.39, -187500.02, 187500.00, -187500.02, -187500.02, -187500.02, 0.00, 0.00, 0.00
175, -187500.02, -187500.02, -58308.30, -187500.02, 187500.00, -187500.02, -187500.02, -187500.02, 0.00, 0.00, 0.00
176, -187500.02, -187500.02, -57282.47, -187500.02, 187500.00, -187500.02, -187500.02, -187500.02, 0.00, 0.00, 0.00
177, -187500.02, -187500.02, -54977.42, -187500.02, 187500.00, -187500.02, -187500.02, -187500.02, 0.00, 0.00, 0.00
178, -187500.02, -187500.02, -55770.59, -187500.02, 187500.00, -187500.02, -187500.02, -187500.02, -0.05, 0.97, 0.16
179, -187500.02, -187500.02, -58120.14, -187500.02, 187500.00, -187500.02, -187500.02, -187500.02, 0.00, 0.00, 0.00
180, -187500.02, -187500.02, -57709.57, -187500.02, 187500.00, -187500.02, -187500.02, -187500.02, 0.00, 0.00, 0.00
181, -187500.02, -187500.02, -55313.23, -187500.02, 187500.00, -187500.02, -187500.02, -187500.02, 0.00, 0.00, 0.00
182, -187500.02, -187500.02, -55464.15, -187500.02, 187500.00, -187500.02, -187500.02, -187500.02, 0.00, 0.00, 0.00
183, -187500.02, -187500.02, -57911.56, -187500.02, 187500.00, -187500.02, -187500.02, -187500.02, 0.00, 0.00, 0.00
184, -187500.02, -187500.02, -58081.34, -187500.02, 187500.00, -187500.02, -187500.02, -187500.02, 0.00, 0.00, 0.00
185, -187500.02, -187500.02, -55743.10, -187500.02, 187500.00, -187500.02, -187500.02, -187500.02, 0.00, 0.00, 0.00
186, -187500.02, -187500.02, -55200.29, -187500.02, 187500.00, -187500.02, -187500.02, -187500.02, 0.00, 0.00, 0.00
187, -187500.02, -187500.02, -57597.07, -187500.02, 187500.00, -187500.02, -187500.02, -187500.02, 0.00, 0.00, 0.00
188, -187500.02, -187500.02, -58314.00, -187500.02, 187500.00, -187500.02, -187500.02, -187500.02, -0.05, 0.98, 0.17
189, -187500.02, -187500.02, -56173.48, -187500.02, 187500.00, -187500.02, -187500.02, -187500.02, 0.00, 0.00, 0.00
190, -187500.02, -187500.02, -55051.12, -187500.02, 187500.00, -187500.02, -187500.02, -187500.02, 0.00, 0.00, 0.00
191, -187500.02, -187500.02, -57228.00, -187500.02, 187500.00, -187500.02, -187500.02, -187500.02, 0.00, 0.00, 0.00
192, -187500.02, -187500.02, -58460.74, -187500.02, 187500.00, -187500.02, -187500.02, -187500.02, 0.00, 0.00, 0.00
193, -187500.02, -187500.02, -56642.85, -187500.02, 187500.00, -187500.02, -187500.02, -187500.02, 0.00, 0.00, 0.00
194, -187500.02, -187500.02, -54956.70, -187500.02, 187500.00, -187500.02, -187500.02, -187500.02, 0.00, 0.00, 0.00
195, -187500.02, -187500.02, -56767.04, -187500.02, 187500.00, -187500.02, -187500.02, -187500.02, 0.00, 0.00, 0.00
196, -187500.02, -187500.02, -58512.20, -187500.02, 187500.00, -187500.02, -187500.02, -187500.02, 0.00, 0.00, 0.00
197, -187500.02, -187500.02, -57147.75, -187500.02, 187500.00, -187500.02, -187500.02, -187500.02, 0.00, 0.00, 0.00
198, -187500.02, -187500.02, -55066.11, -187500.02, 187500.00, -187500.02, -187500.02, -187500.02, -0.05, 0.98, 0.17
199, -187500.02, -187500.02, -56314.23, -187500.02, 187500.00, -187500.02, -187500.02, -187500.02, 0.00, 0.00, 0.00
200, -187500.02, -187500.02, -58445.81, -187500.02, 187500.00, -187500.02, -187500.02, -187500.02, 0.00, 0.00, 0.00
201, -187500.02, -187500.02, -57612.45, -187500.02, 187500.00, -187500.02, -187500.02, -187500.02, 0.00, 0.00, 0.00
202, -187500.02, -187500.02, -55291.78, -187500.02, 187500.00, -187500.02, -187500.02, -187500.02, 0.00, 0.00, 0.00
203, -187500.02, -187500.02, -55928.62, -187500.02, 187500.00, -187500.02, -187500.02, -187500.02, 0.00, 0.00, 0.00
204, -187500.02, -187500.02, -58297.30, -187500.02, 187500.00, -187500.02, -187500.02, -187500.02, 0.00, 0.00, 0.00
205, -187500.02, -187500.02, -58030.87, -187500.02, 187500.00, -187500.02, -187500.02, -187500.02, 0.00, 0.00, 0.00
206, -187500.02, -187500.02, -55622.29, -187500.02, 187500.00, -187500.02, -187500.02, -187500.02, 0.00, 0.00, 0.00
207, -187500.02, -187500.02, -55545.94, -187500.02, 187500.00, -187500.02, -187500.02, -187500.02, -0.04, 0.98, 0.17
208, -187500.02, -187500.02, -57986.77, -187500.02, 187500.00, -187500.02, -187500.02, -187500.02, 0.00, 0.00, 0.00
209, -187500.02, -187500.02, -58299.07, -187500.02, 187500.00, -187500.02, -187500.02, -187500.02, 0.00, 0.00, 0.00
210, -187500.02, -187500.02, -56011.75, -187500.02, 187500.00, -187500.02, -187500.02, -187500.02, 0.00, 0.00, 0.00
211, -187500.02, -187500.02, -55329.93, -187500.02, 187500.00, -187500.02, -187500.02, -187500.02, 0.00, 0.00, 0.00
212, -187500.02, -187500.02, -57685.85, -187500.02, 187500.00, -187500.02, -187500.02, -187500.02, 0.00, 0.00, 0.00
213, -187500.02, -187500.02, -58564.88, -187500.02, 187500.00, -187500.02, -187500.02, -187500.02, 0.00, 0.00, 0.00
214, -187500.02, -187500.02, -56530.80, -187500.02, 187500.00, -187500.02, -187500.02, -187500.02, 0.00, 0.00, 0.00
215, -187500.02, -187500.02, -55212.81, -187500.02, 187500.00, -187500.02, -187500.02, -187500.02, 0.00, 0.00, 0.00
216, -187500.02, -187500.02, -57278.85, -187500.02, 187500.00, -187500.02, -187500.02, -187500.02, 0.00, 0.00, 0.00
217, -187500.02, -187500.02, -58673.89, -187500.02, 187500.00, -187500.02, -187500.02, -187500.02, -0.04, 0.97, 0.18
218, -187500.02, -187500.02, -56980.76, -187500.02, 187500.00, -187500.02, -187500.02, -187500.02, 0.00, 0.00, 0.00
219, -187500.02, -187500.02, -55165.11, -187500.02, 187500.00, -187500.02, -187500.02, -187500.02, 0.00, 0.00, 0.00
220, -187500.02, -187500.02, -56833.24, -187500.02, 187500.00, -187500.02, -187500.02, -187500.02, 0.00, 0.00, 0.00
221, -187500.02, -187500.02, -58712.13, -187500.02, 187500.00, -187500.02, -187500.02, -187500.02, 0.00, 0.00, 0.00
222, -187500.02, -187500.02, -57473.62, -187500.02, 187500.00, -187500.02, -187500.02, -187500.02, 0.00, 0.00, 0.00
223, -187500.02, -187500.02, -55284.00, -187500.02, 187500.00, -187500.02, -187500.02, -187500.02, 0.00, 0.00, 0.00
224, -187500.02, -187500.02, -56360.64, -187500.02, 187500.00, -187500.02, -187500.02, -187500.02, 0.00, 0.00, 0.00
225, -187500.02, -187500.02, -58560.32, -187500.02, 187500.00, -187500.02, -187500.02, -187500.02, 0.00, 0.00, 0.00
226, -187500.02, -187500.02, -57866.14, -187500.02, 187500.00, -187500.02, -187500.02, -187500.02, 0.00, 0.00, 0.00
227, -187500.02, -187500.02, -55512.39, -187500.02, 187500.00, -187500.02, -187500.02, -187500.02, -0.06, 0.96, 0.18
228, -187500.02, -187500.02, -56020.38, -187500.02, 187500.00, -187500.02, -187500.02, -187500.02, 0.00, 0.00, 0.00
229, -187500.02, -187500.02, -58439.04, -187500.02, 187500.00, -187500.02, -187500.02, -187500.02, 0.00, 0.00, 0.00
230, -187500.02, -187500.02, -58286.55, -187500.02, 187500.00, -187500.02, -187500.02, -187500.02, 0.00, 0.00, 0.00
231, -187500.02, -187500.02, -55873.48, -187500.02, 187500.00, -187500.02, -187500.02, -187500.02, 0.00, 0.00, 0.00
232, -187500.02, -187500.02, -55615.36, -187500.02, 187500.00, -187500.02, -187500.02, -187500.02, 0.00, 0.00, 0.00
233, -187500.02, -187500.02, -58051.93, -187500.02, 187500.00, -187500.02, -187500.02, -187500.02, 0.00, 0.00, 0.00
234, -187500.02, -187500.02, -58526.90, -187500.02, 187500.00, -187500.02, -187500.02, -187500.02, 0.00, 0.00, 0.00
235, -187500.02, -187500.02, -56284.51, -187500.02, 187500.00, -187500.02, -187500.02, -187500.02, 0.00, 0.00, 0.00
236, -187500.02, -187500.02, -55413.97, -187500.02, 187500.00, -187500.02, -187500.02, -187500.02, 0.00, 0.00, 0.00
237, -187500.02, -187500.02, -57713.99, -187500.02, 187500.00, -187500.02, -187500.02, -187500.02, -0.04, 0.96, 0.18
238, -187500.02, -187500.02, -58725.74, -187500.02, 187500.00, -187500.02, -187500.02, -187500.02, 0.00, 0.00, 0.00
239, -187500.02, -187500.02, -56759.08, -187500.02, 187500.00, -187500.02, -187500.02, -187500.02, 0.00, 0.00, 0.00
240, -187500.02, -187500.02, -55326.64, -187500.02, 187500.00, -187500.02, -187500.02, -187500.02, 0.00, 0.00, 0.00
241, -187500.02, -187500.02, -57271.52, -187500.02, 187500.00, -187500.02, -187500.02, -187500.02, 0.00, 0.00, 0.00
242, -187500.02, -187500.02, -58766.15, -187500.02, 187500.00, -187500.02, -187500.02, -187500.02, 0.00, 0.00, 0.00
243, -187500.02, -187500.02, -57162.02, -187500.02, 187500.00, -187500.02, -187500.02, -187500.02, 0.00, 0.00, 0.00
244, -187500.02, -187500.02, -55250.18, -187500.02, 187500.00, -187500.02, -187500.02, -187500.02, 0.00, 0.00, 0.00
245, -187500.02, -187500.02, -56765.85, -187500.02, 187500.00, -187500.02, -187500.02, -187500.02, 0.00, 0.00, 0.00
246, -187500.02, -187500.02, -58714.50, -187500.02, 187500.00, -187500.02, -187500.02, -187500.02, 0.00, 0.00, 0.00
247, -187500.02, -187500.02, -57601.27, -187500.02, 187500.00, -187500.02, -187500.02, -187500.02, -0.03, 0.97, 0.18
248, -187500.02, -187500.02, -55371.24, -187500.02, 187500.00, -187500.02, -187500.02, -187500.02, 0.00, 0.00, 0.00
249, -187500.02, -187500.02, -56300.53, -187500.02, 187500.00, -187500.02, -187500.02, -187500.02, 0.00, 0.00, 0.00
250, -187500.02, -187500.02, -58586.02, -187500.02, 187500.00, -187500.02, -187500.02, -187500.02, 0.00, 0.00, 0.00
251, -187500.02, -187500.02, -58045.76, -187500.02, 187500.00, -187500.02, -187500.02, -187500.02, 0.00, 0.00, 0.00
252, -187500.02, -187500.02, -55651.75, -187500.02, 187500.00, -187500.02, -187500.02, -187500.02, 0.00, 0.00, 0.00
253, -187500.02, -187500.02, -55911.99, -187500.02, 187500.00, -187500.02, -187500.02, -187500.02, 0.00, 0.00, 0.00
254, -187500.02, -187500.02, -58369.43, -187500.02, 187500.00, -187500.02, -187500.02, -187500.02, 0.00, 0.00, 0.00
255, -187500.02, -187500.02, -58404.35, -187500.02, 187500.00, -187500.02, -187500.02, -187500.02, 0.00, 0.00, 0.00
0, -187500.02, -187500.02, -56011.50, -187500.02, 187500.00, -187500.02, -187500.02, -187500.02, 0.00, 0.00, 0.00
1, -187500.02, -187500.02, -55566.12, -187500.02, 187500.00, -187500.02, -187500.02, -187500.02, -0.04, 0.98, 0.18
2, -187500.02, -187500.02, -58015.29, -187500.02, 187500.00, -187500.02, -187500.02, -187500.02, 0.00, 0.00, 0.00
3, -187500.02, -187500.02, -58634.28, -187500.02, 187500.00, -187500.02, -187500.02, -187500.02, 0.00, 0.00, 0.00
4, -187500.02, -187500.02, -56421.41, -187500.02, 187500.00, -187500.02, -187500.02, -187500.02, 0.00, 0.00, 0.00
5, -187500.02, -187500.02, -55382.01, -187500.02, 187500.00, -187500.02, -187500.02, -187500.02, 0.00, 0.00, 0.00
6, -187500.02, -187500.02, -57642.35, -187500.02, 187500.00, -187500.02, -187500.02, -187500.02, 0.00, 0.00, 0.00
7, -187500.02, -187500.02, -58810.50, -187500.02, 187500.00, -187500.02, -187500.02, -187500.02, 0.00, 0.00, 0.00
8, -187500.02, -187500.02, -56933.00, -187500.02, 187500.00, -187500.02, -187500.02, -187500.02, 0.00, 0.00, 0.00
9, -187500.02, -187500.02, -55359.39, -187500.02, 187500.00, -187500.02, -187500.02, -187500.02, 0.00, 0.00, 0.00
10, -187500.02, -187500.02, -57217.96, -187500.02, 187500.00, -187500.02, -187500.02, -187500.02, 0.00, 0.00, 0.00
11, -187500.02, -187500.02, -58888.13, -187500.02, 187500.00, -187500.02, -187500.02, -187500.02, -0.05, 0.97, 0.18
